%OpenBCI Raw EEG Data
%
%Sample Rate = 250.0 Hz
%First Column = SampleIndex
%Other Columns = EEG data in microvolts
-29, -138634.80, 0.00
-28, -199660.88, 0.00
-27, -204104.17, 0.00
-26, -156867.94, 0.00
-25, -142265.39, 0.00
-24, -164788.53, 0.00
-23, -169918.34, 0.00
-22, -150111.30, 0.00
-21, -138933.80, 0.00
-20, -143518.23, 0.00
-19, -144497.47, 0.00
-18, -136754.58, 0.00
-17, -130439.98, 0.00
-16, -128159.99, 0.00
-15, -125407.48, 0.00
-14, -119097.77, 0.00
-13, -115162.12, 0.00
-12, -110372.79, 0.00
-11, -107817.09, 0.00
-10, -106720.20, 0.00
-9, -103132.16, 0.00
-8, -97778.77, 0.00
-7, -95011.53, 0.00
-6, -94443.62, 0.00
-5, -91676.97, 0.00
-4, -86650.23, 0.00
-3, -83544.40, 0.00
-2, -82856.48, 0.00
-1, -80788.29, 0.00
0, -76472.93, 0.00
-29, -73227.39, 0.00
-28, -72188.84, 0.00
-27, -70554.32, 0.00
-26, -67012.76, 0.00
-25, -63855.24, 0.00
-24, -62472.14, 0.00
-23, -61046.77, 0.00
-22, -58181.94, 0.00
-21, -55267.63, 0.00
-20, -53646.26, 0.00
-19, -52292.05, 0.00
-18, -49955.38, 0.00
-17, -47355.85, 0.00
-16, -45621.29, 0.00
-15, -44276.59, 0.00
-14, -42325.97, 0.00
-13, -40050.72, 0.00
-12, -38308.23, 0.00
-11, -36961.53, 0.00
-10, -35284.77, 0.00
-9, -33307.61, 0.00
-8, -31630.46, 0.00
-7, -30295.93, 0.00
-6, -28814.41, 0.00
-5, -27094.40, 0.00
-4, -25525.62, 0.00
-3, -24226.00, 0.00
-2, -22889.46, 0.00
-1, -21384.00, 0.00
0, -19943.32, 0.00
-29, -18700.34, 0.00
-28, -17479.13, 0.00
-27, -16150.63, 0.00
-26, -14842.34, 0.00
-25, -13672.36, 0.00
-24, -12549.92, 0.00
-23, -11368.14, 0.00
-22, -10187.54, 0.00
-21, -9100.60, 0.00
-20, -8068.00, 0.00
-19, -7009.80, 0.00
-18, -5947.91, 0.00
-17, -4948.47, 0.00
-16, -4000.54, 0.00
-15, -3048.80, 0.00
-14, -2095.12, 0.00
-13, -1183.39, 0.00
-12, -316.43, 0.00
-11, 541.47, 0.00
-10, 1397.34, 0.00
-9, 2223.95, 0.00
-8, 3013.31, 0.00
-7, 3787.01, 0.00
-6, 4554.55, 0.00
-5, 5300.36, 0.00
-4, 6015.66, 0.00
-3, 6712.61, 0.00
-2, 7400.17, 0.00
-1, 8070.28, 0.00
0, 8715.39, 0.00
-29, 9341.75, 0.00
-28, 9956.61, 0.00
-27, 10556.37, 0.00
-26, 11135.41, 0.00
-25, 11696.49, 0.00
-24, 12244.93, 0.00
-23, 12779.72, 0.00
-22, 13296.94, 0.00
-21, 13797.55, 0.00
-20, 14760.11, 0.00
-19, 15219.82, 0.00
-18, 15664.35, 0.00
-17, 16096.16, 0.00
-16, 16515.93, 0.00
-15, 16922.24, 0.00
-14, 17314.82, 0.00
-13, 17695.23, 0.00
-12, 18064.23, 0.00
-11, 18421.12, 0.00
-10, 18765.61, 0.00
-9, 19098.65, 0.00
-8, 19420.94, 0.00
-7, 19732.27, 0.00
-6, 20032.39, 0.00
-5, 20321.82, 0.00
-4, 20601.24, 0.00
-3, 20870.63, 0.00
-2, 21129.82, 0.00
-1, 21379.20, 0.00
0, 21619.21, 0.00
-29, 21849.99, 0.00
-28, 22071.54, 0.00
-27, 22284.04, 0.00
-26, 22487.89, 0.00
-25, 22683.29, 0.00
-24, 22870.21, 0.00
-23, 23048.87, 0.00
-22, 23219.55, 0.00
-21, 23382.43, 0.00
-20, 23537.59, 0.00
-19, 23685.20, 0.00
-18, 23825.48, 0.00
-17, 23958.59, 0.00
-16, 24084.67, 0.00
-15, 24203.83, 0.00
-14, 24316.26, 0.00
-13, 24422.14, 0.00
-12, 24521.60, 0.00
-11, 24614.72, 0.00
-10, 24701.69, 0.00
-9, 24782.67, 0.00
-8, 24857.77, 0.00
-7, 24927.11, 0.00
-6, 24990.83, 0.00
-5, 25049.08, 0.00
-4, 25101.99, 0.00
-3, 25149.69, 0.00
-2, 25192.25, 0.00
-1, 25229.84, 0.00
0, 25262.54, 0.00
-29, 25290.50, 0.00
-28, 25313.79, 0.00
-27, 25332.57, 0.00
-26, 25346.94, 0.00
-25, 25357.00, 0.00
-24, 25362.88, 0.00
-23, 25364.67, 0.00
-22, 25362.46, 0.00
-21, 25356.35, 0.00
-20, 25346.45, 0.00
-19, 25332.82, 0.00
-18, 25315.58, 0.00
-17, 25294.82, 0.00
-16, 25270.63, 0.00
-15, 25243.12, 0.00
-14, 25212.36, 0.00
-13, 25178.46, 0.00
-12, 25141.44, 0.00
-11, 25101.43, 0.00
-10, 25058.52, 0.00
-9, 25012.76, 0.00
-8, 24964.26, 0.00
-7, 24913.07, 0.00
-6, 24859.27, 0.00
-5, 24744.07, 0.00
-4, 24682.85, 0.00
-3, 24619.28, 0.00
-2, 24553.46, 0.00
-1, 24485.46, 0.00
0, 24415.32, 0.00
-29, 24343.10, 0.00
-28, 24268.89, 0.00
-27, 24192.72, 0.00
-26, 24114.69, 0.00
-25, 24034.85, 0.00
-24, 23953.27, 0.00
-23, 23869.96, 0.00
-22, 23785.00, 0.00
-21, 23698.46, 0.00
-20, 23610.35, 0.00
-19, 23520.76, 0.00
-18, 23429.72, 0.00
-17, 23337.32, 0.00
-16, 23243.55, 0.00
-15, 23148.51, 0.00
-14, 23052.22, 0.00
-13, 22856.04, 0.00
-12, 22756.26, 0.00
-11, 22655.44, 0.00
-10, 22553.56, 0.00
-9, 22450.71, 0.00
-8, 22346.94, 0.00
-7, 22242.26, 0.00
-6, 22136.70, 0.00
-5, 22030.32, 0.00
-4, 21923.15, 0.00
-3, 21815.21, 0.00
-2, 21706.60, 0.00
-1, 21597.28, 0.00
0, 21487.31, 0.00
-29, 21376.74, 0.00
-28, 21265.58, 0.00
-27, 21153.87, 0.00
-26, 21041.64, 0.00
-25, 20928.92, 0.00
-24, 20815.73, 0.00
-23, 20702.09, 0.00
-22, 20588.03, 0.00
-21, 20473.62, 0.00
-20, 20358.86, 0.00
-19, 20243.79, 0.00
-18, 20128.41, 0.00
-17, 20012.77, 0.00
-16, 19896.87, 0.00
-15, 19780.76, 0.00
-14, 19664.46, 0.00
-13, 19547.96, 0.00
-12, 19431.33, 0.00
-11, 19314.54, 0.00
-10, 19197.64, 0.00
-9, 19080.65, 0.00
-8, 18963.60, 0.00
-7, 18846.47, 0.00
-6, 18729.33, 0.00
-5, 18612.16, 0.00
-4, 18377.83, 0.00
-3, 18260.72, 0.00
-2, 18143.67, 0.00
-1, 18026.70, 0.00
0, 17909.80, 0.00
-29, 17793.04, 0.00
-28, 17676.41, 0.00
-27, 17559.91, 0.00
-26, 17443.54, 0.00
-25, 17327.41, 0.00
-24, 17211.42, 0.00
-23, 17095.66, 0.00
-22, 16980.10, 0.00
-21, 16864.75, 0.00
-20, 16749.63, 0.00
-19, 16634.75, 0.00
-18, 16520.11, 0.00
-17, 16405.75, 0.00
-16, 16291.69, 0.00
-15, 16177.90, 0.00
-14, 16064.42, 0.00
-13, 15951.23, 0.00
-12, 15838.35, 0.00
-11, 15725.84, 0.00
-10, 15613.65, 0.00
-9, 15501.80, 0.00
-8, 15390.31, 0.00
-7, 15279.18, 0.00
-6, 15168.43, 0.00
-5, 15058.10, 0.00
-4, 14948.15, 0.00
-3, 14838.61, 0.00
-2, 14729.49, 0.00
-1, 14620.77, 0.00
0, 14512.47, 0.00
-29, 14404.60, 0.00
-28, 14297.16, 0.00
-27, 14190.16, 0.00
-26, 14083.56, 0.00
-25, 13977.46, 0.00
-24, 13871.80, 0.00
-23, 13766.64, 0.00
-22, 13661.92, 0.00
-21, 13557.67, 0.00
-20, 13453.92, 0.00
-19, 13350.61, 0.00
-18, 13247.79, 0.00
-17, 13145.44, 0.00
-16, 13043.58, 0.00
-15, 12942.22, 0.00
-14, 12841.34, 0.00
-13, 12740.98, 0.00
-12, 12641.14, 0.00
-11, 12541.79, 0.00
-10, 12442.95, 0.00
-9, 12344.62, 0.00
-8, 12246.79, 0.00
-7, 12149.49, 0.00
-6, 12052.73, 0.00
-5, 11956.51, 0.00
-4, 11860.77, 0.00
-3, 11765.60, 0.00
-2, 11670.94, 0.00
-1, 11576.82, 0.00
0, 11483.21, 0.00
-29, 11390.16, 0.00
-28, 11297.64, 0.00
-27, 11205.64, 0.00
-26, 11114.20, 0.00
-25, 11023.28, 0.00
-24, 10932.91, 0.00
-23, 10843.08, 0.00
-22, 10753.76, 0.00
-21, 10665.00, 0.00
-20, 10576.75, 0.00
-19, 10489.07, 0.00
-18, 10401.92, 0.00
-17, 10315.31, 0.00
-16, 10229.23, 0.00
-15, 10143.71, 0.00
-14, 10058.75, 0.00
-13, 9974.31, 0.00
-12, 9807.09, 0.00
-11, 9724.30, 0.00
-10, 9642.05, 0.00
-9, 9560.33, 0.00
-8, 9479.17, 0.00
-7, 9398.55, 0.00
-6, 9318.44, 0.00
-5, 9238.89, 0.00
-4, 9159.88, 0.00
-3, 9081.38, 0.00
-2, 9003.44, 0.00
-1, 8926.01, 0.00
0, 8849.10, 0.00
-29, 8772.75, 0.00
-28, 8696.91, 0.00
-27, 8621.60, 0.00
-26, 8546.84, 0.00
-25, 8472.56, 0.00
-24, 8398.82, 0.00
-23, 8325.62, 0.00
-22, 8252.93, 0.00
-21, 8180.78, 0.00
-20, 8109.15, 0.00
-19, 8038.02, 0.00
-18, 7967.41, 0.00
-17, 7897.32, 0.00
-16, 7827.71, 0.00
-15, 7758.65, 0.00
-14, 7690.09, 0.00
-13, 7622.03, 0.00
-12, 7554.46, 0.00
-11, 7487.41, 0.00
-10, 7420.85, 0.00
-9, 7354.80, 0.00
-8, 7289.24, 0.00
-7, 7224.19, 0.00
-6, 7159.62, 0.00
-5, 7095.54, 0.00
-4, 7031.92, 0.00
-3, 6968.80, 0.00
-2, 6906.15, 0.00
-1, 6843.99, 0.00
0, 6782.30, 0.00
-29, 6721.12, 0.00
-28, 6660.39, 0.00
-27, 6600.13, 0.00
-26, 6540.37, 0.00
-25, 6481.04, 0.00
-24, 6422.17, 0.00
-23, 6363.76, 0.00
-22, 6305.78, 0.00
-21, 6248.27, 0.00
-20, 6191.21, 0.00
-19, 6134.57, 0.00
-18, 6078.40, 0.00
-17, 6022.68, 0.00
-16, 5967.38, 0.00
-15, 5912.53, 0.00
-14, 5858.10, 0.00
-13, 5804.10, 0.00
-12, 5750.52, 0.00
-11, 5697.37, 0.00
-10, 5644.64, 0.00
-9, 5592.34, 0.00
-8, 5540.48, 0.00
-7, 5489.05, 0.00
-6, 5438.04, 0.00
-5, 5387.46, 0.00
-4, 5337.31, 0.00
-3, 5287.55, 0.00
-2, 5238.24, 0.00
-1, 5189.31, 0.00
0, 5140.79, 0.00
-29, 5092.67, 0.00
-28, 5044.97, 0.00
-27, 4997.65, 0.00
-26, 4950.73, 0.00
-25, 4904.22, 0.00
-24, 4858.11, 0.00
-23, 4812.40, 0.00
-22, 4767.07, 0.00
-21, 4722.10, 0.00
-20, 4677.50, 0.00
-19, 4633.29, 0.00
-18, 4589.46, 0.00
-17, 4545.99, 0.00
-16, 4502.89, 0.00
-15, 4460.16, 0.00
-14, 4417.78, 0.00
-13, 4375.78, 0.00
-12, 4334.14, 0.00
-11, 4292.83, 0.00
-10, 4251.90, 0.00
-9, 4211.34, 0.00
-8, 4171.10, 0.00
-7, 4131.23, 0.00
-6, 4091.69, 0.00
-5, 4052.48, 0.00
-4, 4013.64, 0.00
-3, 3975.15, 0.00
-2, 3936.99, 0.00
-1, 3899.17, 0.00
0, 3861.69, 0.00
-29, 3824.54, 0.00
-28, 3787.70, 0.00
-27, 3751.20, 0.00
-26, 3714.99, 0.00
-25, 3679.12, 0.00
-24, 3643.58, 0.00
-23, 3608.35, 0.00
-22, 3573.46, 0.00
-21, 3538.86, 0.00
-20, 3504.57, 0.00
-19, 3470.60, 0.00
-18, 3436.96, 0.00
-17, 3403.59, 0.00
-16, 3370.55, 0.00
-15, 3337.79, 0.00
-14, 3305.33, 0.00
-13, 3273.14, 0.00
-12, 3241.27, 0.00
-11, 3209.67, 0.00
-10, 3178.37, 0.00
-9, 3147.35, 0.00
-8, 3116.62, 0.00
-7, 3086.17, 0.00
-6, 3056.00, 0.00
-5, 3026.07, 0.00
-4, 2996.43, 0.00
-3, 2967.06, 0.00
-2, 2937.96, 0.00
-1, 2909.12, 0.00
0, 2880.54, 0.00
-29, 2852.24, 0.00
-28, 2824.19, 0.00
-27, 2796.40, 0.00
-26, 2768.87, 0.00
-25, 2741.58, 0.00
-24, 2714.55, 0.00
-23, 2687.77, 0.00
-22, 2661.24, 0.00
-21, 2634.96, 0.00
-20, 2608.92, 0.00
-19, 2583.08, 0.00
-18, 2557.49, 0.00
-17, 2532.12, 0.00
-16, 2506.97, 0.00
-15, 2482.05, 0.00
-14, 2457.37, 0.00
-13, 2432.90, 0.00
-12, 2408.67, 0.00
-11, 2360.90, 0.00
-10, 2337.34, 0.00
-9, 2314.01, 0.00
-8, 2290.87, 0.00
-7, 2267.96, 0.00
-6, 2245.28, 0.00
-5, 2222.79, 0.00
-4, 2200.51, 0.00
-3, 2178.45, 0.00
-2, 2156.59, 0.00
-1, 2134.93, 0.00
0, 2113.49, 0.00
-29, 2092.23, 0.00
-28, 2071.20, 0.00
-27, 2050.35, 0.00
-26, 2029.72, 0.00
-25, 2009.27, 0.00
-24, 1989.01, 0.00
-23, 1968.96, 0.00
-22, 1949.09, 0.00
-21, 1929.42, 0.00
-20, 1909.93, 0.00
-19, 1890.64, 0.00
-18, 1871.51, 0.00
-17, 1852.58, 0.00
-16, 1833.83, 0.00
-15, 1815.23, 0.00
-14, 1796.83, 0.00
-13, 1778.62, 0.00
-12, 1760.58, 0.00
-11, 1742.72, 0.00
-10, 1725.02, 0.00
-9, 1707.47, 0.00
-8, 1690.10, 0.00
-7, 1672.92, 0.00
-6, 1655.88, 0.00
-5, 1639.01, 0.00
-4, 1622.29, 0.00
-3, 1589.37, 0.00
-2, 1573.12, 0.00
-1, 1557.04, 0.00
0, 1541.13, 0.00
-29, 1525.35, 0.00
-28, 1509.73, 0.00
-27, 1494.26, 0.00
-26, 1478.95, 0.00
-25, 1463.79, 0.00
-24, 1448.77, 0.00
-23, 1433.91, 0.00
-22, 1419.20, 0.00
-21, 1404.65, 0.00
-20, 1390.21, 0.00
-19, 1375.93, 0.00
-18, 1361.78, 0.00
-17, 1347.77, 0.00
-16, 1333.86, 0.00
-15, 1320.12, 0.00
-14, 1306.50, 0.00
-13, 1293.03, 0.00
-12, 1279.68, 0.00
-11, 1266.47, 0.00
-10, 1253.37, 0.00
-9, 1240.43, 0.00
-8, 1227.60, 0.00
-7, 1214.88, 0.00
-6, 1202.32, 0.00
-5, 1189.85, 0.00
-4, 1177.51, 0.00
-3, 1165.31, 0.00
-2, 1153.22, 0.00
-1, 1141.24, 0.00
0, 1129.39, 0.00
-29, 1117.68, 0.00
-28, 1106.05, 0.00
-27, 1094.56, 0.00
-26, 1083.19, 0.00
-25, 1071.92, 0.00
-24, 1060.77, 0.00
-23, 1049.75, 0.00
-22, 1038.82, 0.00
-21, 1028.00, 0.00
-20, 1017.29, 0.00
-19, 1006.70, 0.00
-18, 996.22, 0.00
-17, 985.85, 0.00
-16, 975.56, 0.00
-15, 965.39, 0.00
-14, 955.31, 0.00
-13, 945.34, 0.00
-12, 935.47, 0.00
-11, 925.70, 0.00
-10, 906.45, 0.00
-9, 897.00, 0.00
-8, 887.61, 0.00
-7, 878.36, 0.00
-6, 869.19, 0.00
-5, 860.10, 0.00
-4, 851.11, 0.00
-3, 842.21, 0.00
-2, 833.41, 0.00
-1, 824.69, 0.00
0, 816.06, 0.00
-29, 807.52, 0.00
-28, 799.05, 0.00
-27, 790.65, 0.00
-26, 782.36, 0.00
-25, 774.13, 0.00
-24, 765.99, 0.00
-23, 757.93, 0.00
-22, 749.97, 0.00
-21, 742.06, 0.00
-20, 734.25, 0.00
-19, 726.52, 0.00
-18, 718.88, 0.00
-17, 711.30, 0.00
-16, 703.79, 0.00
-15, 696.37, 0.00
-14, 689.04, 0.00
-13, 681.77, 0.00
-12, 674.58, 0.00
-11, 667.45, 0.00
-10, 660.40, 0.00
-9, 653.43, 0.00
-8, 646.55, 0.00
-7, 639.73, 0.00
-6, 632.96, 0.00
-5, 626.27, 0.00
-4, 619.66, 0.00
-3, 613.11, 0.00
-2, 606.60, 0.00
-1, 600.19, 0.00
0, 593.82, 0.00
-29, 587.54, 0.00
-28, 581.30, 0.00
-27, 575.13, 0.00
-26, 569.03, 0.00
-25, 563.00, 0.00
-24, 557.01, 0.00
-23, 551.08, 0.00
-22, 545.23, 0.00
-21, 539.44, 0.00
-20, 533.69, 0.00
-19, 528.04, 0.00
-18, 522.40, 0.00
-17, 516.86, 0.00
-16, 511.36, 0.00
-15, 505.91, 0.00
-14, 500.52, 0.00
-13, 495.18, 0.00
-12, 489.91, 0.00
-11, 484.68, 0.00
-10, 479.49, 0.00
-9, 474.35, 0.00
-8, 469.27, 0.00
-7, 464.25, 0.00
-6, 459.26, 0.00
-5, 454.32, 0.00
-4, 449.45, 0.00
-3, 444.62, 0.00
-2, 439.84, 0.00
-1, 435.12, 0.00
0, 430.43, 0.00
-29, 425.80, 0.00
-28, 421.22, 0.00
-27, 416.68, 0.00
-26, 412.19, 0.00
-25, 407.74, 0.00
-24, 403.34, 0.00
-23, 398.98, 0.00
-22, 394.66, 0.00
-21, 390.40, 0.00
-20, 386.17, 0.00
-19, 382.01, 0.00
-18, 377.88, 0.00
-17, 373.81, 0.00
-16, 369.76, 0.00
-15, 365.79, 0.00
-14, 361.83, 0.00
-13, 357.94, 0.00
-12, 354.07, 0.00
-11, 350.25, 0.00
-10, 346.45, 0.00
-9, 342.72, 0.00
-8, 339.01, 0.00
-7, 335.34, 0.00
-6, 331.72, 0.00
-5, 328.15, 0.00
-4, 324.61, 0.00
-3, 321.13, 0.00
-2, 317.66, 0.00
-1, 314.24, 0.00
0, 310.89, 0.00
-29, 307.54, 0.00
-28, 304.23, 0.00
-27, 300.97, 0.00
-26, 297.73, 0.00
-25, 294.51, 0.00
-24, 291.35, 0.00
-23, 288.20, 0.00
-22, 285.10, 0.00
-21, 282.03, 0.00
-20, 278.99, 0.00
-19, 276.00, 0.00
-18, 273.03, 0.00
-17, 270.08, 0.00
-16, 267.17, 0.00
-15, 264.31, 0.00
-14, 261.47, 0.00
-13, 258.65, 0.00
-12, 255.88, 0.00
-11, 253.13, 0.00
-10, 250.43, 0.00
-9, 247.75, 0.00
-8, 245.09, 0.00
-7, 242.47, 0.00
-6, 239.90, 0.00
-5, 237.35, 0.00
-4, 234.83, 0.00
-3, 232.32, 0.00
-2, 229.84, 0.00
-1, 227.38, 0.00
0, 224.95, 0.00
-29, 222.56, 0.00
-28, 220.19, 0.00
-27, 217.82, 0.00
-26, 215.52, 0.00
-25, 213.21, 0.00
-24, 210.93, 0.00
-23, 208.68, 0.00
-22, 206.44, 0.00
-21, 204.25, 0.00
-20, 202.06, 0.00
-19, 199.89, 0.00
-18, 197.75, 0.00
-17, 195.64, 0.00
-16, 193.54, 0.00
-15, 191.47, 0.00
-14, 189.41, 0.00
-13, 185.36, 0.00
-12, 183.37, 0.00
-11, 181.41, 0.00
-10, 179.46, 0.00
-9, 177.52, 0.00
-8, 175.62, 0.00
-7, 173.72, 0.00
-6, 171.84, 0.00
-5, 169.99, 0.00
-4, 168.17, 0.00
-3, 166.34, 0.00
-2, 164.55, 0.00
-1, 162.77, 0.00
0, 160.98, 0.00
-29, 159.21, 0.00
-28, 157.45, 0.00
-27, 155.72, 0.00
-26, 154.00, 0.00
-25, 152.30, 0.00
-24, 150.63, 0.00
-23, 148.97, 0.00
-22, 145.73, 0.00
-21, 144.12, 0.00
-20, 142.54, 0.00
-19, 140.97, 0.00
-18, 139.43, 0.00
-17, 137.89, 0.00
-16, 136.37, 0.00
-15, 134.87, 0.00
-14, 133.40, 0.00
-13, 131.92, 0.00
-12, 130.47, 0.00
-11, 129.01, 0.00
-10, 127.58, 0.00
-9, 126.18, 0.00
-8, 124.77, 0.00
-7, 123.40, 0.00
-6, 122.04, 0.00
-5, 120.68, 0.00
-4, 119.34, 0.00
-3, 117.99, 0.00
-2, 116.68, 0.00
-1, 115.38, 0.00
0, 114.06, 0.00
-29, 112.79, 0.00
-28, 111.51, 0.00
-27, 110.26, 0.00
-26, 109.03, 0.00
-25, 107.80, 0.00
-24, 106.60, 0.00
-23, 105.41, 0.00
-22, 104.23, 0.00
-21, 103.04, 0.00
-20, 101.88, 0.00
-19, 100.72, 0.00
-18, 99.58, 0.00
-17, 98.46, 0.00
-16, 97.36, 0.00
-15, 96.27, 0.00
-14, 95.20, 0.00
-13, 94.15, 0.00
-12, 93.07, 0.00
-11, 92.04, 0.00
-10, 91.02, 0.00
-9, 89.99, 0.00
-8, 88.98, 0.00
-7, 87.98, 0.00
-6, 86.99, 0.00
-5, 86.03, 0.00
-4, 85.05, 0.00
-3, 84.09, 0.00
-2, 83.15, 0.00
-1, 82.21, 0.00
0, 81.27, 0.00
-29, 80.35, 0.00
-28, 79.44, 0.00
-27, 78.54, 0.00
-26, 77.65, 0.00
-25, 76.78, 0.00
-24, 75.93, 0.00
-23, 75.08, 0.00
-22, 74.23, 0.00
-21, 73.40, 0.00
-20, 72.58, 0.00
-19, 71.75, 0.00
-18, 70.94, 0.00
-17, 70.14, 0.00
-16, 69.36, 0.00
-15, 68.58, 0.00
-14, 67.82, 0.00
-13, 67.06, 0.00
-12, 66.30, 0.00
-11, 65.54, 0.00
-10, 64.80, 0.00
-9, 64.08, 0.00
-8, 63.34, 0.00
-7, 62.65, 0.00
-6, 61.94, 0.00
-5, 61.24, 0.00
-4, 60.57, 0.00
-3, 59.88, 0.00
-2, 59.23, 0.00
-1, 58.58, 0.00
0, 57.94, 0.00
-29, 57.29, 0.00
-28, 56.66, 0.00
-27, 56.01, 0.00
-26, 55.39, 0.00
-25, 54.78, 0.00
-24, 54.18, 0.00
-23, 53.58, 0.00
-22, 52.97, 0.00
-21, 52.39, 0.00
-20, 51.81, 0.00
-19, 51.23, 0.00
-18, 50.67, 0.00
-17, 50.11, 0.00
-16, 49.55, 0.00
-15, 49.02, 0.00
-14, 48.46, 0.00
-13, 47.94, 0.00
-12, 47.41, 0.00
-11, 46.89, 0.00
-10, 46.36, 0.00
-9, 45.84, 0.00
-8, 45.33, 0.00
-7, 44.84, 0.00
-6, 43.85, 0.00
-5, 43.36, 0.00
-4, 42.87, 0.00
-3, 42.38, 0.00
-2, 41.91, 0.00
-1, 41.44, 0.00
0, 40.97, 0.00
-29, 40.52, 0.00
-28, 40.08, 0.00
-27, 39.65, 0.00
-26, 39.23, 0.00
-25, 38.82, 0.00
-24, 38.42, 0.00
-23, 38.02, 0.00
-22, 37.62, 0.00
-21, 37.22, 0.00
-20, 36.81, 0.00
-19, 36.41, 0.00
-18, 36.03, 0.00
-17, 35.63, 0.00
-16, 35.27, 0.00
-15, 34.89, 0.00
-14, 34.53, 0.00
-13, 34.15, 0.00
-12, 33.80, 0.00
-11, 33.44, 0.00
-10, 33.08, 0.00
-9, 32.72, 0.00
-8, 32.37, 0.00
-7, 32.01, 0.00
-6, 31.65, 0.00
-5, 31.31, 0.00
-4, 30.96, 0.00
-3, 30.62, 0.00
-2, 30.29, 0.00
-1, 29.95, 0.00
0, 29.62, 0.00
-29, 29.30, 0.00
-28, 28.99, 0.00
-27, 28.68, 0.00
-26, 28.36, 0.00
-25, 28.05, 0.00
-24, 27.76, 0.00
-23, 27.45, 0.00
-22, 27.16, 0.00
-21, 26.84, 0.00
-20, 26.55, 0.00
-19, 26.24, 0.00
-18, 25.95, 0.00
-17, 25.66, 0.00
-16, 25.37, 0.00
-15, 25.08, 0.00
-14, 24.79, 0.00
-13, 24.50, 0.00
-12, 24.23, 0.00
-11, 23.94, 0.00
-10, 23.67, 0.00
-9, 23.40, 0.00
-8, 23.13, 0.00
-7, 22.87, 0.00
-6, 22.60, 0.00
-5, 22.35, 0.00
-4, 22.08, 0.00
-3, 21.84, 0.00
-2, 21.57, 0.00
-1, 21.32, 0.00
0, 21.06, 0.00
-29, 20.81, 0.00
-28, 20.54, 0.00
-27, 20.30, 0.00
-26, 20.07, 0.00
-25, 19.83, 0.00
-24, 19.60, 0.00
-23, 19.36, 0.00
-22, 19.13, 0.00
-21, 18.89, 0.00
-20, 18.66, 0.00
-19, 18.42, 0.00
-18, 18.19, 0.00
-17, 17.95, 0.00
-16, 17.72, 0.00
-15, 17.50, 0.00
-14, 17.28, 0.00
-13, 17.05, 0.00
-12, 16.83, 0.00
-11, 16.63, 0.00
-10, 16.43, 0.00
-9, 16.21, 0.00
-8, 16.00, 0.00
-7, 15.78, 0.00
-6, 15.58, 0.00
-5, 15.36, 0.00
-4, 15.15, 0.00
-3, 14.93, 0.00
-2, 14.73, 0.00
-1, 14.53, 0.00
0, 14.33, 0.00
-29, 14.15, 0.00
-28, 13.95, 0.00
-27, 13.77, 0.00
-26, 13.57, 0.00
-25, 13.39, 0.00
-24, 13.19, 0.00
-23, 13.01, 0.00
-22, 12.83, 0.00
-21, 12.65, 0.00
-20, 12.47, 0.00
-19, 12.29, 0.00
-18, 12.11, 0.00
-17, 11.96, 0.00
-16, 11.78, 0.00
-15, 11.62, 0.00
-14, 11.47, 0.00
-13, 11.29, 0.00
-12, 11.11, 0.00
-11, 10.95, 0.00
-10, 10.80, 0.00
-9, 10.64, 0.00
-8, 10.48, 0.00
-7, 10.33, 0.00
-6, 10.19, 0.00
-5, 10.04, 0.00
-4, 9.90, 0.00
-3, 9.77, 0.00
-2, 9.63, 0.00
-1, 9.52, 0.00
0, 9.39, 0.00
-29, 9.25, 0.00
-28, 9.14, 0.00
-27, 9.03, 0.00
-26, 8.92, 0.00
-25, 8.81, 0.00
-24, 8.69, 0.00
-23, 8.58, 0.00
-22, 8.49, 0.00
-21, 8.38, 0.00
-20, 8.29, 0.00
-19, 8.20, 0.00
-18, 8.09, 0.00
-17, 8.02, 0.00
-16, 7.93, 0.00
-15, 7.85, 0.00
-14, 7.76, 0.00
-13, 7.67, 0.00
-12, 7.60, 0.00
-11, 7.53, 0.00
-10, 7.44, 0.00
-9, 7.35, 0.00
-8, 7.29, 0.00
-7, 7.22, 0.00
-6, 7.15, 0.00
-5, 7.09, 0.00
-4, 7.02, 0.00
-3, 6.95, 0.00
-2, 6.88, 0.00
-1, 6.82, 0.00
0, 6.75, 0.00
-29, 6.68, 0.00
-28, 6.62, 0.00
-27, 6.55, 0.00
-26, 6.48, 0.00
-25, 6.44, 0.00
-24, 6.37, 0.00
-23, 6.33, 0.00
-22, 6.26, 0.00
-21, 6.21, 0.00
-20, 6.15, 0.00
-19, 6.10, 0.00
-18, 6.03, 0.00
-17, 5.99, 0.00
-16, 5.95, 0.00
-15, 5.90, 0.00
-14, 5.86, 0.00
-13, 5.81, 0.00
-12, 5.77, 0.00
-11, 5.72, 0.00
-10, 5.68, 0.00
-9, 5.63, 0.00
-8, 5.59, 0.00
-7, 5.54, 0.00
-6, 5.52, 0.00
-5, 5.48, 0.00
-4, 5.45, 0.00
-3, 5.41, 0.00
-2, 5.39, 0.00
-1, 5.34, 0.00
0, 5.32, 0.00
-29, 5.28, 0.00
-28, 5.25, 0.00
-27, 5.21, 0.00
-26, 5.19, 0.00
-25, 5.14, 0.00
-24, 5.12, 0.00
-23, 5.07, 0.00
-22, 5.05, 0.00
-21, 5.01, 0.00
-20, 4.98, 0.00
-19, 4.94, 0.00
-18, 4.92, 0.00
-17, 4.87, 0.00
-16, 4.85, 0.00
-15, 4.81, 0.00
-14, 4.78, 0.00
-13, 4.74, 0.00
-12, 4.72, 0.00
-11, 4.67, 0.00
-10, 4.65, 0.00
-9, 4.60, 0.00
-8, 4.58, 0.00
-7, 4.54, 0.00
-6, 4.52, 0.00
-5, 4.47, 0.00
-4, 4.45, 0.00
-3, 4.40, 0.00
-2, 4.38, 0.00
-1, 4.34, 0.00
0, 4.31, 0.00
-29, 4.27, 0.00
-28, 4.25, 0.00
-27, 4.22, 0.00
-26, 4.20, 0.00
-25, 4.18, 0.00
-24, 4.16, 0.00
-23, 4.14, 0.00
-22, 4.11, 0.00
-21, 4.09, 0.00
-20, 4.07, 0.00
-19, 4.05, 0.00
-18, 4.02, 0.00
-17, 4.00, 0.00
-16, 3.98, 0.00
-15, 3.96, 0.00
-14, 3.93, 0.00
-13, 3.91, 0.00
-12, 3.89, 0.00
-11, 3.87, 0.00
-10, 3.84, 0.00
-9, 3.82, 0.00
-8, 3.80, 0.00
-7, 3.78, 0.00
-6, 3.76, 0.00
-5, 3.73, 0.00
-4, 3.71, 0.00
-3, 3.69, 0.00
-2, 3.67, 0.00
-1, 3.64, 0.00
0, 3.62, 0.00
-29, 3.60, 0.00
-28, 3.55, 0.00
-27, 3.53, 0.00
-26, 3.51, 0.00
-25, 3.49, 0.00
-24, 3.46, 0.00
-23, 3.44, 0.00
-22, 3.42, 0.00
-21, 3.40, 0.00
-20, 3.38, 0.00
-19, 3.35, 0.00
-18, 3.33, 0.00
-17, 3.31, 0.00
-16, 3.29, 0.00
-15, 3.26, 0.00
-14, 3.24, 0.00
-13, 3.22, 0.00
-12, 3.20, 0.00
-11, 3.17, 0.00
-10, 3.15, 0.00
-9, 3.13, 0.00
-8, 3.11, 0.00
-7, 3.08, 0.00
-6, 3.06, 0.00
-5, 3.04, 0.00
-4, 3.02, 0.00
-3, 3.00, 0.00
-2, 2.97, 0.00
-1, 2.95, 0.00
0, 2.93, 0.00
-29, 2.91, 0.00
-28, 2.88, 0.00
-27, 2.88, 0.00
-26, 2.86, 0.00
-25, 2.86, 0.00
-24, 2.84, 0.00
-23, 2.84, 0.00
-22, 2.82, 0.00
-21, 2.82, 0.00
-20, 2.79, 0.00
-19, 2.79, 0.00
-18, 2.77, 0.00
-17, 2.77, 0.00
-16, 2.75, 0.00
-15, 2.75, 0.00
-14, 2.73, 0.00
-13, 2.73, 0.00
-12, 2.70, 0.00
-11, 2.70, 0.00
-10, 2.68, 0.00
-9, 2.68, 0.00
-8, 2.66, 0.00
-7, 2.66, 0.00
-6, 2.64, 0.00
-5, 2.64, 0.00
-4, 2.62, 0.00
-3, 2.62, 0.00
-2, 2.59, 0.00
-1, 2.59, 0.00
0, 2.57, 0.00
-29, 2.57, 0.00
-28, 2.55, 0.00
-27, 2.55, 0.00
-26, 2.53, 0.00
-25, 2.53, 0.00
-24, 2.50, 0.00
-23, 2.50, 0.00
-22, 2.48, 0.00
-21, 2.48, 0.00
-20, 2.46, 0.00
-19, 2.46, 0.00
-18, 2.44, 0.00
-17, 2.44, 0.00
-16, 2.41, 0.00
-15, 2.41, 0.00
-14, 2.39, 0.00
-13, 2.39, 0.00
-12, 2.37, 0.00
-11, 2.37, 0.00
-10, 2.35, 0.00
-9, 2.35, 0.00
-8, 2.32, 0.00
-7, 2.32, 0.00
-6, 2.30, 0.00
-5, 2.30, 0.00
-4, 2.28, 0.00
-3, 2.28, 0.00
-2, 2.26, 0.00
-1, 2.26, 0.00
0, 2.24, 0.00
-29, 2.24, 0.00
-28, 2.21, 0.00
-27, 2.21, 0.00
-26, 2.19, 0.00
-25, 2.19, 0.00
-24, 2.17, 0.00
-23, 2.17, 0.00
-22, 2.15, 0.00
-21, 2.15, 0.00
-20, 2.12, 0.00
-19, 2.12, 0.00
-18, 2.10, 0.00
-17, 2.10, 0.00
-16, 2.08, 0.00
-15, 2.08, 0.00
-14, 2.06, 0.00
-13, 2.06, 0.00
-12, 2.03, 0.00
-11, 2.03, 0.00
-10, 2.01, 0.00
-9, 2.01, 0.00
-8, 1.99, 0.00
-7, 1.99, 0.00
-6, 1.97, 0.00
-5, 1.97, 0.00
-4, 1.94, 0.00
-3, 1.94, 0.00
-2, 1.92, 0.00
-1, 1.92, 0.00
0, 1.90, 0.00
-29, 1.90, 0.00
-28, 1.88, 0.00
-27, 1.88, 0.00
-26, 1.86, 0.00
-25, 1.86, 0.00
-24, 1.83, 0.00
-23, 1.83, 0.00
-22, 1.81, 0.00
-21, 1.81, 0.00
-20, 1.79, 0.00
-19, 1.79, 0.00
-18, 1.77, 0.00
-17, 1.77, 0.00
-16, 1.74, 0.00
-15, 1.74, 0.00
-14, 1.72, 0.00
-13, 1.72, 0.00
-12, 1.70, 0.00
-11, 1.70, 0.00
-10, 1.68, 0.00
-9, 1.68, 0.00
-8, 1.65, 0.00
-7, 1.65, 0.00
-6, 1.63, 0.00
-5, 1.63, 0.00
-4, 1.61, 0.00
-3, 1.61, 0.00
-2, 1.59, 0.00
-1, 1.59, 0.00
0, 1.56, 0.00
-29, 1.56, 0.00
-28, 1.54, 0.00
-27, 1.54, 0.00
-26, 1.52, 0.00
-25, 1.52, 0.00
-24, 1.50, 0.00
-23, 1.50, 0.00
-22, 1.48, 0.00
-21, 1.48, 0.00
-20, 1.45, 0.00
-19, 1.45, 0.00
-18, 1.43, 0.00
-17, 1.43, 0.00
-16, 1.41, 0.00
-15, 1.41, 0.00
-14, 1.39, 0.00
-13, 1.39, 0.00
-12, 1.36, 0.00
-11, 1.36, 0.00
-10, 1.34, 0.00
-9, 1.34, 0.00
-8, 1.32, 0.00
-7, 1.32, 0.00
-6, 1.30, 0.00
-5, 1.30, 0.00
-4, 1.27, 0.00
-3, 1.27, 0.00
-2, 1.25, 0.00
-1, 1.25, 0.00
0, 1.23, 0.00
-29, 1.23, 0.00
-28, 1.21, 0.00
-27, 1.21, 0.00
-26, 1.18, 0.00
-25, 1.18, 0.00
-24, 1.16, 0.00
-23, 1.16, 0.00
-22, 1.14, 0.00
-21, 1.14, 0.00
-20, 1.12, 0.00
-19, 1.12, 0.00
-18, 1.12, 0.00
-17, 1.10, 0.00
-16, 1.10, 0.00
-15, 1.12, 0.00
-14, 1.12, 0.00
-13, 1.10, 0.00
-12, 1.10, 0.00
-11, 1.12, 0.00
-10, 1.12, 0.00
-9, 1.10, 0.00
-8, 1.10, 0.00
-7, 1.12, 0.00
-6, 1.12, 0.00
-5, 1.10, 0.00
-4, 1.10, 0.00
-3, 1.10, 0.00
-2, 1.10, 0.00
-1, 1.12, 0.00
0, 1.12, 0.00
-29, 1.10, 0.00
-28, 1.10, 0.00
-27, 1.12, 0.00
-26, 1.12, 0.00
-25, 1.10, 0.00
-24, 1.10, 0.00
-23, 1.10, 0.00
-22, 1.12, 0.00
-21, 1.12, 0.00
-20, 1.10, 0.00
-19, 1.10, 0.00
-18, 1.12, 0.00
-17, 1.12, 0.00
-16, 1.10, 0.00
-15, 1.10, 0.00
-14, 1.12, 0.00
-13, 1.12, 0.00
-12, 1.10, 0.00
-11, 1.10, 0.00
-10, 1.12, 0.00
-9, 1.12, 0.00
-8, 1.10, 0.00
-7, 1.10, 0.00
-6, 1.12, 0.00
-5, 1.12, 0.00
-4, 1.10, 0.00
-3, 1.10, 0.00
-2, 1.12, 0.00
-1, 1.12, 0.00
0, 1.12, 0.00
-29, 1.10, 0.00
-28, 1.10, 0.00
-27, 1.12, 0.00
-26, 1.12, 0.00
-25, 1.10, 0.00
-24, 1.10, 0.00
-23, 1.12, 0.00
-22, 1.12, 0.00
-21, 1.10, 0.00
-20, 1.10, 0.00
-19, 1.12, 0.00
-18, 1.12, 0.00
-17, 1.10, 0.00
-16, 1.10, 0.00
-15, 1.12, 0.00
-14, 1.12, 0.00
-13, 1.10, 0.00
-12, 1.10, 0.00
-11, 1.12, 0.00
-10, 1.12, 0.00
-9, 1.10, 0.00
-8, 1.10, 0.00
-7, 1.12, 0.00
-6, 1.12, 0.00
-5, 1.12, 0.00
-4, 1.10, 0.00
-3, 1.10, 0.00
-2, 1.12, 0.00
-1, 1.12, 0.00
0, 1.10, 0.00
-29, 1.10, 0.00
-28, 1.12, 0.00
-27, 1.12, 0.00
-26, 1.10, 0.00
-25, 1.10, 0.00
-24, 1.12, 0.00
-23, 1.12, 0.00
-22, 1.10, 0.00
-21, 1.10, 0.00
-20, 1.12, 0.00
-19, 1.12, 0.00
-18, 1.10, 0.00
-17, 1.10, 0.00
-16, 1.12, 0.00
-15, 1.12, 0.00
-14, 1.10, 0.00
-13, 1.10, 0.00
-12, 1.12, 0.00
-11, 1.12, 0.00
-10, 1.10, 0.00
-9, 1.10, 0.00
-8, 1.12, 0.00
-7, 1.12, 0.00
-6, 1.10, 0.00
-5, 1.10, 0.00
-4, 1.12, 0.00
-3, 1.12, 0.00
-2, 1.10, 0.00
-1, 1.10, 0.00
0, 1.12, 0.00
-29, 1.12, 0.00
-28, 1.10, 0.00
-27, 1.10, 0.00
-26, 1.12, 0.00
-25, 1.12, 0.00
-24, 1.10, 0.00
-23, 1.10, 0.00
-22, 1.12, 0.00
-21, 1.12, 0.00
-20, 1.10, 0.00
-19, 1.10, 0.00
-18, 1.12, 0.00
-17, 1.12, 0.00
-16, 1.10, 0.00
-15, 1.10, 0.00
-14, 1.12, 0.00
-13, 1.12, 0.00
-12, 1.10, 0.00
-11, 1.10, 0.00
-10, 1.12, 0.00
-9, 1.12, 0.00
-8, 1.10, 0.00
-7, 1.10, 0.00
-6, 1.12, 0.00
-5, 1.12, 0.00
-4, 1.10, 0.00
-3, 1.10, 0.00
-2, 1.12, 0.00
-1, 1.12, 0.00
0, 1.10, 0.00
-29, 1.10, 0.00
-28, 1.12, 0.00
-27, 1.12, 0.00
-26, 1.10, 0.00
-25, 1.10, 0.00
-24, 1.12, 0.00
-23, 1.12, 0.00
-22, 1.10, 0.00
-21, 1.10, 0.00
-20, 1.12, 0.00
-19, 1.12, 0.00
-18, 1.10, 0.00
-17, 1.10, 0.00
-16, 1.12, 0.00
-15, 1.12, 0.00
-14, 1.10, 0.00
-13, 1.10, 0.00
-12, 1.12, 0.00
-11, 1.12, 0.00
-10, 1.10, 0.00
-9, 1.10, 0.00
-8, 1.12, 0.00
-7, 1.12, 0.00
-6, 1.10, 0.00
-5, 1.10, 0.00
-4, 1.12, 0.00
-3, 1.12, 0.00
-2, 1.10, 0.00
-1, 1.10, 0.00
0, 1.12, 0.00
-29, 1.12, 0.00
-28, 1.10, 0.00
-27, 1.10, 0.00
-26, 1.12, 0.00
-25, 1.12, 0.00
-24, 1.10, 0.00
-23, 1.10, 0.00
-22, 1.12, 0.00
-21, 1.12, 0.00
-20, 1.10, 0.00
-19, 1.10, 0.00
-18, 1.12, 0.00
-17, 1.12, 0.00
-16, 1.10, 0.00
-15, 1.10, 0.00
-14, 1.12, 0.00
-13, 1.12, 0.00
-12, 1.10, 0.00
-11, 1.10, 0.00
-10, 1.12, 0.00
-9, 1.12, 0.00
-8, 1.10, 0.00
-7, 1.10, 0.00
-6, 1.12, 0.00
-5, 1.12, 0.00
-4, 1.10, 0.00
-3, 1.10, 0.00
-2, 1.12, 0.00
-1, 1.12, 0.00
0, 1.10, 0.00
-29, 1.10, 0.00
-28, 1.12, 0.00
-27, 1.12, 0.00
-26, 1.10, 0.00
-25, 1.10, 0.00
-24, 1.12, 0.00
-23, 1.12, 0.00
-22, 1.10, 0.00
-21, 1.10, 0.00
-20, 1.12, 0.00
-19, 1.12, 0.00
-18, 1.10, 0.00
-17, 1.10, 0.00
-16, 1.12, 0.00
-15, 1.12, 0.00
-14, 1.10, 0.00
-13, 1.10, 0.00
-12, 1.12, 0.00
-11, 1.12, 0.00
-10, 1.10, 0.00
-9, 1.10, 0.00
-8, 1.12, 0.00
-7, 1.12, 0.00
-6, 1.10, 0.00
-5, 1.10, 0.00
-4, 1.12, 0.00
-3, 1.12, 0.00
-2, 1.10, 0.00
-1, 1.10, 0.00
0, 1.12, 0.00
-29, 1.12, 0.00
-28, 1.10, 0.00
-27, 1.10, 0.00
-26, 1.12, 0.00
-25, 1.12, 0.00
-24, 1.10, 0.00
-23, 1.10, 0.00
-22, 1.12, 0.00
-21, 1.12, 0.00
-20, 1.10, 0.00
-19, 1.10, 0.00
-18, 1.12, 0.00
-17, 1.12, 0.00
-16, 1.10, 0.00
-15, 1.10, 0.00
-14, 1.12, 0.00
-13, 1.12, 0.00
-12, 1.10, 0.00
-11, 1.10, 0.00
-10, 1.12, 0.00
-9, 1.12, 0.00
-8, 1.10, 0.00
-7, 1.10, 0.00
-6, 1.12, 0.00
-5, 1.12, 0.00
-4, 1.10, 0.00
-3, 1.10, 0.00
-2, 1.12, 0.00
-1, 1.12, 0.00
0, 1.10, 0.00
-29, 1.10, 0.00
-28, 1.12, 0.00
-27, 1.12, 0.00
-26, 1.10, 0.00
-25, 1.10, 0.00
-24, 1.12, 0.00
-23, 1.12, 0.00
-22, 1.10, 0.00
-21, 1.10, 0.00
-20, 1.12, 0.00
-19, 1.12, 0.00
-18, 1.10, 0.00
-17, 1.10, 0.00
-16, 1.12, 0.00
-15, 1.12, 0.00
-14, 1.10, 0.00
-13, 1.10, 0.00
-12, 1.12, 0.00
-11, 1.12, 0.00
-10, 1.10, 0.00
-9, 1.10, 0.00
-8, 1.12, 0.00
-7, 1.12, 0.00
-6, 1.10, 0.00
-5, 1.10, 0.00
-4, 1.12, 0.00
-3, 1.12, 0.00
-2, 1.10, 0.00
-1, 1.10, 0.00
0, 1.12, 0.00
-29, 1.12, 0.00
-28, 1.10, 0.00
-27, 1.10, 0.00
-26, 1.12, 0.00
-25, 1.12, 0.00
-24, 1.10, 0.00
-23, 1.10, 0.00
-22, 1.12, 0.00
-21, 1.12, 0.00
-20, 1.10, 0.00
-19, 1.10, 0.00
-18, 1.12, 0.00
-17, 1.12, 0.00
-16, 1.10, 0.00
-15, 1.10, 0.00
-14, 1.12, 0.00
-13, 1.12, 0.00
-12, 1.10, 0.00
-11, 1.10, 0.00
-10, 1.12, 0.00
-9, 1.12, 0.00
-8, 1.10, 0.00
-7, 1.10, 0.00
-6, 1.12, 0.00
-5, 1.12, 0.00
-4, 1.10, 0.00
-3, 1.10, 0.00
-2, 1.12, 0.00
-1, 1.12, 0.00
0, 1.10, 0.00
-29, 1.10, 0.00
-28, 1.12, 0.00
-27, 1.12, 0.00
-26, 1.10, 0.00
-25, 1.10, 0.00
-24, 1.12, 0.00
-23, 1.12, 0.00
-22, 1.10, 0.00
-21, 1.10, 0.00
-20, 1.12, 0.00
-19, 1.12, 0.00
-18, 1.10, 0.00
-17, 1.10, 0.00
-16, 1.12, 0.00
-15, 1.12, 0.00
-14, 1.10, 0.00
-13, 1.10, 0.00
-12, 1.12, 0.00
-11, 1.12, 0.00
-10, 1.10, 0.00
-9, 1.10, 0.00
-8, 1.12, 0.00
-7, 1.12, 0.00
-6, 1.10, 0.00
-5, 1.10, 0.00
-4, 1.12, 0.00
-3, 1.12, 0.00
-2, 1.10, 0.00
-1, 1.10, 0.00
0, 1.12, 0.00
-29, 1.12, 0.00
-28, 1.10, 0.00
-27, 1.10, 0.00
-26, 1.12, 0.00
-25, 1.12, 0.00
-24, 1.10, 0.00
-23, 1.10, 0.00
-22, 1.12, 0.00
-21, 1.12, 0.00
-20, 1.10, 0.00
-19, 1.10, 0.00
-18, 1.12, 0.00
-17, 1.12, 0.00
-16, 1.10, 0.00
-15, 1.10, 0.00
-14, 1.12, 0.00
-13, 1.12, 0.00
-12, 1.10, 0.00
-11, 1.10, 0.00
-10, 1.12, 0.00
-9, 1.12, 0.00
-8, 1.10, 0.00
-7, 1.10, 0.00
-6, 1.12, 0.00
-5, 1.12, 0.00
-4, 1.10, 0.00
-3, 1.10, 0.00
-2, 1.12, 0.00
-1, 1.12, 0.00
0, 1.10, 0.00
-29, 1.10, 0.00
-28, 1.12, 0.00
-27, 1.12, 0.00
-26, 1.10, 0.00
-25, 1.10, 0.00
-24, 1.12, 0.00
-23, 1.12, 0.00
-22, 1.10, 0.00
-21, 1.10, 0.00
-20, 1.12, 0.00
-19, 1.12, 0.00
-18, 1.10, 0.00
-17, 1.10, 0.00
-16, 1.12, 0.00
-15, 1.12, 0.00
-14, 1.10, 0.00
-13, 1.10, 0.00
-12, 1.12, 0.00
-11, 1.12, 0.00
-10, 1.10, 0.00
-9, 1.10, 0.00
-8, 1.12, 0.00
-7, 1.12, 0.00
-6, 1.10, 0.00
-5, 1.10, 0.00
-4, 1.12, 0.00
-3, 1.12, 0.00
-2, 1.10, 0.00
-1, 1.10, 0.00
0, 1.12, 0.00
-29, 1.12, 0.00
-28, 1.10, 0.00
-27, 1.10, 0.00
-26, 1.12, 0.00
-25, 1.12, 0.00
-24, 1.10, 0.00
-23, 1.10, 0.00
-22, 1.12, 0.00
-21, 1.12, 0.00
-20, 1.10, 0.00
-19, 1.10, 0.00
-18, 1.12, 0.00
-17, 1.12, 0.00
-16, 1.10, 0.00
-15, 1.10, 0.00
-14, 1.12, 0.00
-13, 1.12, 0.00
-12, 1.10, 0.00
-11, 1.10, 0.00
-10, 1.12, 0.00
-9, 1.12, 0.00
-8, 1.10, 0.00
-7, 1.10, 0.00
-6, 1.12, 0.00
-5, 1.12, 0.00
-4, 1.10, 0.00
-3, 1.10, 0.00
-2, 1.12, 0.00
-1, 1.12, 0.00
0, 1.10, 0.00
-29, 1.10, 0.00
-28, 1.12, 0.00
-27, 1.12, 0.00
-26, 1.10, 0.00
-25, 1.10, 0.00
-24, 1.12, 0.00
-23, 1.12, 0.00
-22, 1.10, 0.00
-21, 1.10, 0.00
-20, 1.12, 0.00
-19, 1.12, 0.00
-18, 1.10, 0.00
-17, 1.10, 0.00
-16, 1.12, 0.00
-15, 1.12, 0.00
-14, 1.10, 0.00
-13, 1.10, 0.00
-12, 1.12, 0.00
-11, 1.12, 0.00
-10, 1.10, 0.00
-9, 1.10, 0.00
-8, 1.12, 0.00
-7, 1.12, 0.00
-6, 1.10, 0.00
-5, 1.10, 0.00
-4, 1.12, 0.00
-3, 1.12, 0.00
-2, 1.10, 0.00
-1, 1.10, 0.00
0, 1.12, 0.00
-29, 1.12, 0.00
-28, 1.10, 0.00
-27, 1.10, 0.00
-26, 1.12, 0.00
-25, 1.12, 0.00
-24, 1.10, 0.00
-23, 1.10, 0.00
-22, 1.12, 0.00
-21, 1.12, 0.00
-20, 1.10, 0.00
-19, 1.10, 0.00
-18, 1.12, 0.00
-17, 1.12, 0.00
-16, 1.10, 0.00
-15, 1.10, 0.00
-14, 1.12, 0.00
-13, 1.12, 0.00
-12, 1.10, 0.00
-11, 1.10, 0.00
-10, 1.12, 0.00
-9, 1.12, 0.00
-8, 1.10, 0.00
-7, 1.10, 0.00
-6, 1.12, 0.00
-5, 1.12, 0.00
-4, 1.10, 0.00
-3, 1.10, 0.00
-2, 1.12, 0.00
-1, 1.12, 0.00
0, 1.10, 0.00
-29, 1.10, 0.00
-28, 1.12, 0.00
-27, 1.12, 0.00
-26, 1.10, 0.00
-25, 1.10, 0.00
-24, 1.12, 0.00
-23, 1.12, 0.00
-22, 1.10, 0.00
-21, 1.10, 0.00
-20, 1.12, 0.00
-19, 1.12, 0.00
-18, 1.10, 0.00
-17, 1.10, 0.00
-16, 1.12, 0.00
-15, 1.12, 0.00
-14, 1.10, 0.00
-13, 1.10, 0.00
-12, 1.12, 0.00
-11, 1.12, 0.00
-10, 1.10, 0.00
-9, 1.10, 0.00
-8, 1.12, 0.00
-7, 1.12, 0.00
-6, 1.10, 0.00
-5, 1.10, 0.00
-4, 1.12, 0.00
-3, 1.12, 0.00
-2, 1.10, 0.00
-1, 1.10, 0.00
0, 1.12, 0.00
-29, 1.12, 0.00
-28, 1.10, 0.00
-27, 1.10, 0.00
-26, 1.12, 0.00
-25, 1.12, 0.00
-24, 1.10, 0.00
-23, 1.10, 0.00
-22, 1.12, 0.00
-21, 1.12, 0.00
-20, 1.10, 0.00
-19, 1.10, 0.00
-18, 1.12, 0.00
-17, 1.12, 0.00
-16, 1.10, 0.00
-15, 1.10, 0.00
-14, 1.12, 0.00
-13, 1.12, 0.00
-12, 1.10, 0.00
-11, 1.10, 0.00
-10, 1.12, 0.00
-9, 1.12, 0.00
-8, 1.10, 0.00
-7, 1.10, 0.00
-6, 1.12, 0.00
-5, 1.12, 0.00
-4, 1.10, 0.00
-3, 1.10, 0.00
-2, 1.12, 0.00
-1, 1.12, 0.00
0, 1.10, 0.00
-29, 1.10, 0.00
-28, 1.12, 0.00
-27, 1.12, 0.00
-26, 1.10, 0.00
-25, 1.10, 0.00
-24, 1.12, 0.00
-23, 1.12, 0.00
-22, 1.10, 0.00
-21, 1.10, 0.00
-20, 1.12, 0.00
-19, 1.12, 0.00
-18, 1.10, 0.00
-17, 1.10, 0.00
-16, 1.12, 0.00
-15, 1.12, 0.00
-14, 1.10, 0.00
-13, 1.10, 0.00
-12, 1.12, 0.00
-11, 1.12, 0.00
-10, 1.10, 0.00
-9, 1.10, 0.00
-8, 1.12, 0.00
-7, 1.12, 0.00
-6, 1.10, 0.00
-5, 1.10, 0.00
-4, 1.12, 0.00
-3, 1.12, 0.00
-2, 1.10, 0.00
-1, 1.10, 0.00
0, 1.12, 0.00
-29, 1.12, 0.00
-28, 1.10, 0.00
-27, 1.10, 0.00
-26, 1.12, 0.00
-25, 1.12, 0.00
-24, 1.10, 0.00
-23, 1.10, 0.00
-22, 1.12, 0.00
-21, 1.12, 0.00
-20, 1.10, 0.00
-19, 1.10, 0.00
-18, 1.12, 0.00
-17, 1.12, 0.00
-16, 1.10, 0.00
-15, 1.10, 0.00
-14, 1.12, 0.00
-13, 1.12, 0.00
-12, 1.10, 0.00
-11, 1.10, 0.00
-10, 1.12, 0.00
-9, 1.12, 0.00
-8, 1.10, 0.00
-7, 1.10, 0.00
-6, 1.12, 0.00
-5, 1.12, 0.00
-4, 1.10, 0.00
-3, 1.10, 0.00
-2, 1.12, 0.00
-1, 1.12, 0.00
0, 1.10, 0.00
-29, 1.10, 0.00
-28, 1.12, 0.00
-27, 1.12, 0.00
-26, 1.10, 0.00
-25, 1.10, 0.00
-24, 1.12, 0.00
-23, 1.12, 0.00
-22, 1.10, 0.00
-21, 1.10, 0.00
-20, 1.12, 0.00
-19, 1.12, 0.00
-18, 1.10, 0.00
-17, 1.10, 0.00
-16, 1.12, 0.00
-15, 1.12, 0.00
-14, 1.10, 0.00
-13, 1.10, 0.00
-12, 1.12, 0.00
-11, 1.12, 0.00
-10, 1.10, 0.00
-9, 1.10, 0.00
-8, 1.12, 0.00
-7, 1.12, 0.00
-6, 1.10, 0.00
-5, 1.10, 0.00
-4, 347.17, 0.00
-3, -17.17, 0.00
-2, 145.38, 0.00
-1, 1468.67, 0.00
0, 1999.90, 0.00
-29, 1964.03, 0.00
-28, 2671.59, 0.00
-27, 3296.93, 0.00
-26, 3984.42, 0.00
-25, 4512.08, 0.00
-24, 5352.46, 0.00
-23, 5748.33, 0.00
-22, 6331.91, 0.00
-21, 7121.89, 0.00
-20, 8065.78, 0.00
-19, 8368.98, 0.00
-18, 9532.55, 0.00
-17, 10511.60, 0.00
-16, 11109.67, 0.00
-15, 11694.57, 0.00
-14, 12416.64, 0.00
-13, 13174.85, 0.00
-12, 13833.60, 0.00
-11, 14381.67, 0.00
-10, 14958.99, 0.00
-9, 15433.77, 0.00
-8, 15930.71, 0.00
-7, 16234.65, 0.00
-6, 16678.13, 0.00
-5, 16953.04, 0.00
-4, 17364.22, 0.00
-3, 17554.79, 0.00
-2, 17935.57, 0.00
-1, 18099.35, 0.00
0, 18417.23, 0.00
-29, 18464.84, 0.00
-28, 18757.02, 0.00
-27, 19014.07, 0.00
-26, 19072.36, 0.00
-25, 19294.36, 0.00
-24, 19456.30, 0.00
-23, 19638.42, 0.00
-22, 19566.60, 0.00
-21, 19432.22, 0.00
-20, 19387.30, 0.00
-19, 19365.62, 0.00
-18, 19278.15, 0.00
-17, 19074.08, 0.00
-16, 18966.59, 0.00
-15, 18776.47, 0.00
-14, 18671.04, 0.00
-13, 18431.69, 0.00
-12, 18295.64, 0.00
-11, 17961.90, 0.00
-10, 17815.28, 0.00
-9, 17512.61, 0.00
-8, 17346.23, 0.00
-7, 16965.53, 0.00
-6, 16783.14, 0.00
-5, 16452.22, 0.00
-4, 16269.86, 0.00
-3, 15889.74, 0.00
-2, 15666.65, 0.00
-1, 15337.99, 0.00
0, 15121.69, 0.00
-29, 14782.50, 0.00
-28, 14517.50, 0.00
-27, 14214.03, 0.00
-26, 13945.50, 0.00
-25, 13659.13, 0.00
-24, 13348.91, 0.00
-23, 13078.36, 0.00
-22, 12753.52, 0.00
-21, 12517.04, 0.00
-20, 12169.47, 0.00
-19, 11937.69, 0.00
-18, 11567.63, 0.00
-17, 10990.53, 0.00
-16, 10787.58, 0.00
-15, 10397.43, 0.00
-14, 10198.74, 0.00
-13, 9831.19, 0.00
-12, 9637.53, 0.00
-11, 9251.90, 0.00
-10, 9023.53, 0.00
-9, 8664.23, 0.00
-8, 8444.80, 0.00
-7, 8089.63, 0.00
-6, 7832.30, 0.00
-5, 7510.50, 0.00
-4, 7246.12, 0.00
-3, 6937.33, 0.00
-2, 6639.94, 0.00
-1, 6354.00, 0.00
0, 6036.60, 0.00
-29, 5746.01, 0.00
-28, 5367.77, 0.00
-27, 5099.06, 0.00
-26, 4729.23, 0.00
-25, 4471.11, 0.00
-24, 4065.51, 0.00
-23, 3820.20, 0.00
-22, 3422.43, 0.00
-21, 3189.24, 0.00
-20, 2794.68, 0.00
-19, 2582.36, 0.00
-18, 2209.76, 0.00
-17, 2007.48, 0.00
-16, 1688.54, 0.00
-15, 1536.82, 0.00
-14, 1239.72, 0.00
-13, 1055.65, 0.00
-12, 793.11, 0.00
-11, 599.61, 0.00
-10, 333.38, 0.00
-9, 99.22, 0.00
-8, -165.40, 0.00
-7, -439.39, 0.00
-6, -668.56, 0.00
-5, -940.27, 0.00
-4, -1147.18, 0.00
-3, -1435.92, 0.00
-2, -1608.10, 0.00
-1, -1899.05, 0.00
0, -2048.72, 0.00
-29, -2320.78, 0.00
-28, -2420.00, 0.00
-27, -2688.83, 0.00
-26, -2764.35, 0.00
-25, -2958.68, 0.00
-24, -2958.43, 0.00
-23, -3150.17, 0.00
-22, -3186.24, 0.00
-21, -3326.88, 0.00
-20, -3305.91, 0.00
-19, -3429.61, 0.00
-18, -3472.43, 0.00
-17, -3591.41, 0.00
-16, -3655.43, 0.00
-15, -3748.54, 0.00
-14, -3810.55, 0.00
-13, -3867.63, 0.00
-12, -3964.84, 0.00
-11, -4010.42, 0.00
-10, -4120.16, 0.00
-9, -4132.12, 0.00
-8, -4265.09, 0.00
-7, -4266.21, 0.00
-6, -4398.98, 0.00
-5, -4374.59, 0.00
-4, -4543.37, 0.00
-3, -4566.77, 0.00
-2, -4738.90, 0.00
-1, -4735.35, 0.00
0, -4920.53, 0.00
-29, -4936.52, 0.00
-28, -5093.94, 0.00
-27, -5114.30, 0.00
-26, -5279.44, 0.00
-25, -5331.31, 0.00
-24, -5475.57, 0.00
-23, -5538.20, 0.00
-22, -5664.56, 0.00
-21, -5755.24, 0.00
-20, -5860.07, 0.00
-19, -5954.97, 0.00
-18, -5618.69, 0.00
-17, -5033.19, 0.00
-16, -5524.05, 0.00
-15, -5511.56, 0.00
-14, -4500.99, 0.00
-13, -4018.60, 0.00
-12, -3781.38, 0.00
-11, -3559.31, 0.00
-10, -3007.38, 0.00
-9, -2880.51, 0.00
-8, -2365.80, 0.00
-7, -2100.93, 0.00
-6, -1715.41, 0.00
-5, -1883.09, 0.00
-4, -1375.19, 0.00
-3, -980.86, 0.00
-2, -746.35, 0.00
-1, -879.18, 0.00
0, -466.39, 0.00
-29, -282.32, 0.00
-28, 10.19, 0.00
-27, 25.28, 0.00
-26, 297.99, 0.00
-25, 533.40, 0.00
-24, 705.11, 0.00
-23, 732.00, 0.00
-22, 832.60, 0.00
-21, 1097.60, 0.00
-20, 1160.30, 0.00
-19, 1178.61, 0.00
-18, 1446.94, 0.00
-17, 1418.29, 0.00
-16, 1552.28, 0.00
-15, 1393.97, 0.00
-14, 1638.25, 0.00
-13, 1548.93, 0.00
-12, 1710.22, 0.00
-11, 1514.62, 0.00
-10, 1707.23, 0.00
-9, 1593.12, 0.00
-8, 1728.12, 0.00
-7, 1569.96, 0.00
-6, 1705.84, 0.00
-5, 1613.89, 0.00
-4, 1666.61, 0.00
-3, 1568.27, 0.00
-2, 1605.82, 0.00
-1, 1577.50, 0.00
0, 1529.66, 0.00
-29, 1498.53, 0.00
-28, 1412.36, 0.00
-27, 1455.30, 0.00
-26, 1327.78, 0.00
-25, 1384.51, 0.00
-24, 1207.89, 0.00
-23, 1308.63, 0.00
-22, 1131.09, 0.00
-21, 1245.66, 0.00
-20, 1011.62, 0.00
-19, 1131.78, 0.00
-18, 1034.86, 0.00
-17, 798.18, 0.00
-16, 891.45, 0.00
-15, 693.51, 0.00
-14, 756.45, 0.00
-13, 551.17, 0.00
-12, 571.06, 0.00
-11, 418.74, 0.00
-10, 402.04, 0.00
-9, 273.65, 0.00
-8, 207.09, 0.00
-7, 138.74, 0.00
-6, 33.19, 0.00
-5, 9.57, 0.00
-4, -133.08, 0.00
-3, -112.52, 0.00
-2, -284.74, 0.00
-1, -182.05, 0.00
0, -187.84, 0.00
-29, 360.02, 0.00
-28, 554.01, 0.00
-27, 973.51, 0.00
-26, 885.80, 0.00
-25, 948.29, 0.00
-24, 628.58, 0.00
-23, 704.46, 0.00
-22, 466.21, 0.00
-21, 480.45, 0.00
-20, 203.91, 0.00
-19, 184.42, 0.00
-18, -39.25, 0.00
-17, -106.46, 0.00
-16, -297.59, 0.00
-15, -394.44, 0.00
-14, -535.01, 0.00
-13, -683.14, 0.00
-12, -767.63, 0.00
-11, -936.43, 0.00
-10, -969.89, 0.00
-9, -1185.07, 0.00
-8, -1182.07, 0.00
-7, -1419.80, 0.00
-6, -1383.19, 0.00
-5, -1637.91, 0.00
-4, -1566.01, 0.00
-3, -1834.25, 0.00
-2, -1759.62, 0.00
-1, -2004.41, 0.00
0, -1870.33, 0.00
-29, -2083.05, 0.00
-28, -1996.50, 0.00
-27, -2187.56, 0.00
-26, -2108.71, 0.00
-25, -2300.35, 0.00
-24, -2302.10, 0.00
-23, -2372.75, 0.00
-22, -2047.37, 0.00
-21, -1756.91, 0.00
-20, -1539.52, 0.00
-19, -1347.07, 0.00
-18, -1417.21, 0.00
-17, -1484.54, 0.00
-16, -1659.75, 0.00
-15, -1594.51, 0.00
-14, -1845.52, 0.00
-13, -1875.80, 0.00
-12, -2173.64, 0.00
-11, -2118.01, 0.00
-10, -2393.02, 0.00
-9, -2284.57, 0.00
-8, -2548.28, 0.00
-7, -2439.98, 0.00
-6, -2703.06, 0.00
-5, -2637.39, 0.00
-4, -2930.60, 0.00
-3, -2928.32, 0.00
-2, -3185.55, 0.00
-1, -3182.84, 0.00
0, -3393.33, 0.00
-29, -3676.06, 0.00
-28, -3808.87, 0.00
-27, -3936.86, 0.00
-26, -4108.92, 0.00
-25, -4196.90, 0.00
-24, -4436.24, 0.00
-23, -4462.93, 0.00
-22, -4692.32, 0.00
-21, -4668.09, 0.00
-20, -4962.49, 0.00
-19, -4908.31, 0.00
-18, -5165.49, 0.00
-17, -5066.60, 0.00
-16, -5369.22, 0.00
-15, -5271.14, 0.00
-14, -5521.93, 0.00
-13, -5406.73, 0.00
-12, -5605.66, 0.00
-11, -5218.86, 0.00
-10, -4993.85, 0.00
-9, -4549.00, 0.00
-8, -4296.23, 0.00
-7, -3948.95, 0.00
-6, -3888.93, 0.00
-5, -3719.62, 0.00
-4, -3663.45, 0.00
-3, -3725.92, 0.00
-2, -3732.74, 0.00
-1, -3778.45, 0.00
0, -3682.72, 0.00
-29, -3752.61, 0.00
-28, -3593.89, 0.00
-27, -3670.83, 0.00
-26, -3450.30, 0.00
-25, -3652.99, 0.00
-24, -3532.74, 0.00
-23, -3709.23, 0.00
-22, -3502.47, 0.00
-21, -3712.33, 0.00
-20, -3572.88, 0.00
-19, -3819.26, 0.00
-18, -3720.27, 0.00
-17, -3906.66, 0.00
-16, -3733.01, 0.00
-15, -3829.30, 0.00
-14, -3727.11, 0.00
-13, -3685.31, 0.00
-12, -3697.89, 0.00
-11, -3680.28, 0.00
-10, -3586.40, 0.00
-9, -3494.69, 0.00
-8, -3296.77, 0.00
-7, -3287.47, 0.00
-6, -3124.48, 0.00
-5, -3241.23, 0.00
-4, -3069.27, 0.00
-3, -3179.65, 0.00
-2, -2924.99, 0.00
-1, -2794.79, 0.00
0, -2094.43, 0.00
-29, -1844.44, 0.00
-28, -1284.87, 0.00
-27, -1203.15, 0.00
-26, -808.44, 0.00
-25, -772.66, 0.00
-24, -404.21, 0.00
-23, -345.71, 0.00
-22, -54.69, 0.00
-21, -1.39, 0.00
-20, 167.41, 0.00
-19, 127.58, 0.00
-18, 6.17, 0.00
-17, -225.91, 0.00
-16, -441.54, 0.00
-15, -533.47, 0.00
-14, -797.26, 0.00
-13, -912.09, 0.00
-12, -1218.46, 0.00
-11, -1227.74, 0.00
-10, -1522.00, 0.00
-9, -1454.81, 0.00
-8, -1711.03, 0.00
-7, -1576.87, 0.00
-6, -1808.84, 0.00
-5, -1504.88, 0.00
-4, -1552.51, 0.00
-3, -1236.83, 0.00
-2, -1376.29, 0.00
-1, -1222.80, 0.00
0, -1335.67, 0.00
-29, -1062.76, 0.00
-28, -794.47, 0.00
-27, -44.39, 0.00
-26, 506.13, 0.00
-25, 1002.41, 0.00
-24, 1270.79, 0.00
-23, 1297.65, 0.00
-22, 1242.47, 0.00
-21, 1206.35, 0.00
-20, 1292.13, 0.00
-19, 1317.12, 0.00
-18, 1791.16, 0.00
-17, 1967.49, 0.00
-16, 2406.90, 0.00
-15, 2309.40, 0.00
-14, 2426.97, 0.00
-13, 2219.39, 0.00
-12, 2473.65, 0.00
-11, 2342.44, 0.00
-10, 2504.04, 0.00
-9, 2162.80, 0.00
-8, 2223.66, 0.00
-7, 1838.61, 0.00
-6, 1825.85, 0.00
-5, 1758.93, 0.00
-4, 1953.81, 0.00
-3, 2102.87, 0.00
-2, 2609.72, 0.00
-1, 2965.03, 0.00
0, 3204.88, 0.00
-29, 3347.29, 0.00
-28, 3288.77, 0.00
-27, 3206.76, 0.00
-26, 3012.12, 0.00
-25, 3072.58, 0.00
-24, 2878.86, 0.00
-23, 2911.60, 0.00
-22, 2593.03, 0.00
-21, 2656.39, 0.00
-20, 2341.64, 0.00
-19, 2413.47, 0.00
-18, 2079.78, 0.00
-17, 2148.43, 0.00
-16, 1799.45, 0.00
-15, 1846.95, 0.00
-14, 1508.05, 0.00
-13, 1497.14, 0.00
-12, 1085.33, 0.00
-11, 885.24, 0.00
-10, 426.92, 0.00
-9, 207.27, 0.00
-8, -172.35, 0.00
-7, -451.28, 0.00
-6, -793.78, 0.00
-5, -1131.29, 0.00
-4, -1387.06, 0.00
-3, -1720.95, 0.00
-2, -1878.49, 0.00
-1, -2229.32, 0.00
0, -2336.25, 0.00
-29, -2730.76, 0.00
-28, -2748.84, 0.00
-27, -3084.72, 0.00
-26, -3062.28, 0.00
-25, -3446.37, 0.00
-24, -3380.57, 0.00
-23, -3695.77, 0.00
-22, -3622.59, 0.00
-21, -3946.31, 0.00
-20, -3869.40, 0.00
-19, -4137.15, 0.00
-18, -4087.87, 0.00
-17, -4323.77, 0.00
-16, -4302.93, 0.00
-15, -4480.27, 0.00
-14, -4502.00, 0.00
-13, -4619.68, 0.00
-12, -4679.36, 0.00
-11, -4734.03, 0.00
-10, -4845.01, 0.00
-9, -4802.14, 0.00
-8, -4798.72, 0.00
-7, -4517.69, 0.00
-6, -4507.90, 0.00
-5, -4206.60, 0.00
-4, -4226.00, 0.00
-3, -3886.19, 0.00
-2, -3958.02, 0.00
-1, -3621.94, 0.00
0, -3708.67, 0.00
-29, -3419.55, 0.00
-28, -3603.37, 0.00
-27, -3395.70, 0.00
-26, -3625.32, 0.00
-25, -3568.90, 0.00
-24, -3842.87, 0.00
-23, -3793.69, 0.00
-22, -4007.98, 0.00
-21, -4035.94, 0.00
-20, -4148.37, 0.00
-19, -4121.37, 0.00
-18, -4177.94, 0.00
-17, -4252.24, 0.00
-16, -4277.83, 0.00
-15, -4405.39, 0.00
-14, -4165.00, 0.00
-13, -3808.51, 0.00
-12, -2950.68, 0.00
-11, -2525.26, 0.00
-10, -1872.47, 0.00
-9, -921.76, 0.00
-8, -655.84, 0.00
-7, 2.41, 0.00
-6, 166.52, 0.00
-5, 722.32, 0.00
-4, 883.99, 0.00
-3, 1437.95, 0.00
-2, 1586.77, 0.00
-1, 1991.52, 0.00
0, 2118.07, 0.00
-29, 2508.74, 0.00
-28, 2678.39, 0.00
-27, 2902.49, 0.00
-26, 3030.25, 0.00
-25, 3215.63, 0.00
-24, 3389.73, 0.00
-23, 3210.16, 0.00
-22, 3033.98, 0.00
-21, 2751.81, 0.00
-20, 2711.58, 0.00
-19, 2335.44, 0.00
-18, 2289.42, 0.00
-17, 1930.05, 0.00
-16, 1971.71, 0.00
-15, 1652.04, 0.00
-14, 1757.27, 0.00
-13, 1390.86, 0.00
-12, 1399.00, 0.00
-11, 757.03, 0.00
-10, 201.88, 0.00
-9, 23.49, 0.00
-8, -470.93, 0.00
-7, -686.20, 0.00
-6, -1147.52, 0.00
-5, -1424.95, 0.00
-4, -2121.23, 0.00
-3, -2445.21, 0.00
-2, -2804.05, 0.00
-1, -3073.23, 0.00
0, -3441.79, 0.00
-29, -3607.77, 0.00
-28, -4017.12, 0.00
-27, -4149.38, 0.00
-26, -4567.69, 0.00
-25, -4610.49, 0.00
-24, -5029.90, 0.00
-23, -5030.71, 0.00
-22, -5322.44, 0.00
-21, -5134.33, 0.00
-20, -5302.41, 0.00
-19, -4997.13, 0.00
-18, -4963.29, 0.00
-17, -4284.72, 0.00
-16, -3946.85, 0.00
-15, -3435.71, 0.00
-14, -3219.21, 0.00
-13, -2716.03, 0.00
-12, -2390.70, 0.00
-11, -1980.10, 0.00
-10, -1681.50, 0.00
-9, -1424.01, 0.00
-8, -1142.93, 0.00
-7, -951.65, 0.00
-6, -616.10, 0.00
-5, -243.19, 0.00
-4, -219.94, 0.00
-3, 144.39, 0.00
-2, 80.62, 0.00
-1, 365.23, 0.00
0, 255.01, 0.00
-29, 587.25, 0.00
-28, 439.97, 0.00
-27, 654.15, 0.00
-26, 393.03, 0.00
-25, 541.99, 0.00
-24, 184.07, 0.00
-23, 33.59, 0.00
-22, -406.09, 0.00
-21, -498.71, 0.00
-20, -820.22, 0.00
-19, -957.57, 0.00
-18, -1200.96, 0.00
-17, -1313.46, 0.00
-16, -1361.33, 0.00
-15, -1301.77, 0.00
-14, -1078.20, 0.00
-13, -1076.75, 0.00
-12, -905.20, 0.00
-11, -967.92, 0.00
-10, -716.64, 0.00
-9, -812.13, 0.00
-8, -561.61, 0.00
-7, -741.30, 0.00
-6, -534.01, 0.00
-5, -740.11, 0.00
-4, -506.29, 0.00
-3, -733.29, 0.00
-2, -562.50, 0.00
-1, -803.01, 0.00
0, -660.76, 0.00
-29, -916.82, 0.00
-28, -906.74, 0.00
-27, -1162.98, 0.00
-26, -1174.05, 0.00
-25, -1347.07, 0.00
-24, -1380.76, 0.00
-23, -1488.00, 0.00
-22, -1588.40, 0.00
-21, -1626.07, 0.00
-20, -1701.44, 0.00
-19, -1603.72, 0.00
-18, -1740.64, 0.00
-17, -1635.79, 0.00
-16, -1834.41, 0.00
-15, -1706.47, 0.00
-14, -1958.75, 0.00
-13, -1822.40, 0.00
-12, -2133.47, 0.00
-11, -2062.75, 0.00
-10, -2419.42, 0.00
-9, -2343.36, 0.00
-8, -2746.43, 0.00
-7, -2815.36, 0.00
-6, -3262.95, 0.00
-5, -3333.36, 0.00
-4, -3742.82, 0.00
-3, -3907.55, 0.00
-2, -4280.98, 0.00
-1, -4473.57, 0.00
0, -4800.39, 0.00
-29, -5067.61, 0.00
-28, -5395.24, 0.00
-27, -5781.10, 0.00
-26, -6063.96, 0.00
-25, -6490.12, 0.00
-24, -6724.05, 0.00
-23, -7202.78, 0.00
-22, -7376.75, 0.00
-21, -7848.17, 0.00
-20, -7946.33, 0.00
-19, -8426.74, 0.00
-18, -8494.35, 0.00
-17, -8958.62, 0.00
-16, -8973.53, 0.00
-15, -9408.99, 0.00
-14, -9425.53, 0.00
-13, -9836.20, 0.00
-12, -9847.33, 0.00
-11, -10206.65, 0.00
-10, -10249.10, 0.00
-9, -10557.96, 0.00
-8, -10610.84, 0.00
-7, -10829.24, 0.00
-6, -10919.07, 0.00
-5, -11082.69, 0.00
-4, -11200.73, 0.00
-3, -11262.44, 0.00
-2, -11393.33, 0.00
-1, -11315.95, 0.00
0, -11283.76, 0.00
-29, -10795.67, 0.00
-28, -10620.30, 0.00
-27, -10111.86, 0.00
-26, -9905.11, 0.00
-25, -9280.62, 0.00
-24, -9110.32, 0.00
-23, -8518.72, 0.00
-22, -8365.00, 0.00
-21, -7790.61, 0.00
-20, -7642.31, 0.00
-19, -7090.49, 0.00
-18, -6969.97, 0.00
-17, -6542.78, 0.00
-16, -6428.50, 0.00
-15, -6027.53, 0.00
-14, -5874.46, 0.00
-13, -5531.77, 0.00
-12, -5307.64, 0.00
-11, -5020.25, 0.00
-10, -4736.36, 0.00
-9, -4513.58, 0.00
-8, -4204.81, 0.00
-7, -4060.48, 0.00
-6, -3701.25, 0.00
-5, -3628.45, 0.00
-4, -3268.94, 0.00
-3, -3255.75, 0.00
-2, -2865.81, 0.00
-1, -2929.75, 0.00
0, -2617.05, 0.00
-29, -2731.29, 0.00
-28, -2381.76, 0.00
-27, -2492.13, 0.00
-26, -2200.64, 0.00
-25, -2329.07, 0.00
-24, -2060.14, 0.00
-23, -2168.88, 0.00
-22, -1975.11, 0.00
-21, -2068.18, 0.00
-20, -1928.96, 0.00
-19, -1979.89, 0.00
-18, -1912.64, 0.00
-17, -1907.16, 0.00
-16, -1894.22, 0.00
-15, -1818.81, 0.00
-14, -1804.81, 0.00
-13, -1600.72, 0.00
-12, -1637.29, 0.00
-11, -1425.88, 0.00
-10, -1519.69, 0.00
-9, -1251.52, 0.00
-8, -1368.55, 0.00
-7, -1080.08, 0.00
-6, -1243.07, 0.00
-5, -967.72, 0.00
-4, -1133.21, 0.00
-3, -855.69, 0.00
-2, -1045.88, 0.00
-1, -858.04, 0.00
0, -1084.60, 0.00
-29, -927.53, 0.00
-28, -1080.35, 0.00
-27, -953.44, 0.00
-26, -1079.88, 0.00
-25, -1025.05, 0.00
-24, -1090.12, 0.00
-23, -1090.09, 0.00
-22, -1103.84, 0.00
-21, -1175.48, 0.00
-20, -1139.49, 0.00
-19, -1271.95, 0.00
-18, -1174.96, 0.00
-17, -1336.28, 0.00
-16, -1178.03, 0.00
-15, -1337.39, 0.00
-14, -1080.46, 0.00
-13, -1257.29, 0.00
-12, -1005.11, 0.00
-11, -1205.90, 0.00
-10, -939.04, 0.00
-9, -1131.45, 0.00
-8, -884.93, 0.00
-7, -1070.87, 0.00
-6, -857.26, 0.00
-5, -1018.84, 0.00
-4, -851.76, 0.00
-3, -976.08, 0.00
-2, -860.03, 0.00
-1, -928.47, 0.00
0, -864.99, 0.00
-29, -895.16, 0.00
-28, -929.56, 0.00
-27, -890.31, 0.00
-26, -975.01, 0.00
-25, -902.41, 0.00
-24, -1063.14, 0.00
-23, -980.08, 0.00
-22, -1216.11, 0.00
-21, -1069.66, 0.00
-20, -1319.13, 0.00
-19, -1155.92, 0.00
-18, -1440.06, 0.00
-17, -1252.57, 0.00
-16, -1530.71, 0.00
-15, -1350.51, 0.00
-14, -1620.93, 0.00
-13, -1447.74, 0.00
-12, -1695.00, 0.00
-11, -1556.98, 0.00
-10, -1754.54, 0.00
-9, -1656.91, 0.00
-8, -1807.97, 0.00
-7, -1768.13, 0.00
-6, -1845.65, 0.00
-5, -1845.78, 0.00
-4, -1860.22, 0.00
-3, -1745.18, 0.00
-2, -1813.20, 0.00
-1, -1661.87, 0.00
0, -1785.23, 0.00
-29, -1567.13, 0.00
-28, -1716.95, 0.00
-27, -1467.12, 0.00
-26, -1664.29, 0.00
-25, -1397.36, 0.00
-24, -1576.07, 0.00
-23, -1285.49, 0.00
-22, -1490.10, 0.00
-21, -1241.95, 0.00
-20, -1426.00, 0.00
-19, -1187.06, 0.00
-18, -1361.89, 0.00
-17, -1221.46, 0.00
-16, -1368.73, 0.00
-15, -1241.28, 0.00
-14, -1316.92, 0.00
-13, -1274.90, 0.00
-12, -1287.48, 0.00
-11, -1281.98, 0.00
-10, -1210.55, 0.00
-9, -1226.15, 0.00
-8, -1075.95, 0.00
-7, -1168.68, 0.00
-6, -969.04, 0.00
-5, -1062.51, 0.00
-4, -857.97, 0.00
-3, -1095.30, 0.00
-2, -837.61, 0.00
-1, -1057.51, 0.00
0, -832.78, 0.00
-29, -1092.22, 0.00
-28, -845.97, 0.00
-27, -1081.82, 0.00
-26, -853.66, 0.00
-25, -1065.69, 0.00
-24, -868.83, 0.00
-23, -1049.82, 0.00
-22, -894.58, 0.00
-21, -995.55, 0.00
-20, -896.04, 0.00
-19, -976.21, 0.00
-18, -953.21, 0.00
-17, -923.37, 0.00
-16, -951.25, 0.00
-15, -901.20, 0.00
-14, -1010.66, 0.00
-13, -874.24, 0.00
-12, -1024.25, 0.00
-11, -867.78, 0.00
-10, -1084.66, 0.00
-9, -872.10, 0.00
-8, -1132.16, 0.00
-7, -930.59, 0.00
-6, -1189.49, 0.00
-5, -952.39, 0.00
-4, -1223.47, 0.00
-3, -996.75, 0.00
-2, -1219.04, 0.00
-1, -971.81, 0.00
0, -1126.10, 0.00
-29, -910.10, 0.00
-28, -1035.06, 0.00
-27, -885.04, 0.00
-26, -940.83, 0.00
-25, -831.98, 0.00
-24, -824.87, 0.00
-23, -797.80, 0.00
-22, -720.35, 0.00
-21, -743.49, 0.00
-20, -615.50, 0.00
-19, -744.94, 0.00
-18, -605.17, 0.00
-17, -781.89, 0.00
-16, -576.29, 0.00
-15, -800.19, 0.00
-14, -581.46, 0.00
-13, -831.62, 0.00
-12, -583.45, 0.00
-11, -851.29, 0.00
-10, -621.69, 0.00
-9, -871.05, 0.00
-8, -634.70, 0.00
-7, -839.08, 0.00
-6, -602.67, 0.00
-5, -744.76, 0.00
-4, -565.50, 0.00
-3, -670.57, 0.00
-2, -536.06, 0.00
-1, -565.52, 0.00
0, -504.48, 0.00
-29, -493.48, 0.00
-28, -529.98, 0.00
-27, -474.53, 0.00
-26, -581.64, 0.00
-25, -463.13, 0.00
-24, -616.39, 0.00
-23, -435.79, 0.00
-22, -635.64, 0.00
-21, -417.22, 0.00
-20, -656.09, 0.00
-19, -427.54, 0.00
-18, -691.99, 0.00
-17, -445.92, 0.00
-16, -721.00, 0.00
-15, -489.26, 0.00
-14, -723.39, 0.00
-13, -500.43, 0.00
-12, -704.66, 0.00
-11, -523.77, 0.00
-10, -685.80, 0.00
-9, -571.27, 0.00
-8, -699.70, 0.00
-7, -673.19, 0.00
-6, -744.40, 0.00
-5, -768.79, 0.00
-4, -818.63, 0.00
-3, -1002.43, 0.00
-2, -1023.06, 0.00
-1, -1242.49, 0.00
0, -1207.93, 0.00
-29, -1536.35, 0.00
-28, -1542.45, 0.00
-27, -1958.53, 0.00
-26, -1931.59, 0.00
-25, -2382.43, 0.00
-24, -2292.19, 0.00
-23, -2627.98, 0.00
-22, -2433.05, 0.00
-21, -2617.52, 0.00
-20, -2249.05, 0.00
-19, -2414.01, 0.00
-18, -2184.28, 0.00
-17, -2306.88, 0.00
-16, -2128.62, 0.00
-15, -2303.30, 0.00
-14, -2241.30, 0.00
-13, -2361.28, 0.00
-12, -2398.30, 0.00
-11, -2390.00, 0.00
-10, -2519.58, 0.00
-9, -2405.20, 0.00
-8, -2529.77, 0.00
-7, -2326.55, 0.00
-6, -2431.47, 0.00
-5, -2054.53, 0.00
-4, -2142.06, 0.00
-3, -1764.04, 0.00
-2, -1866.50, 0.00
-1, -1453.44, 0.00
0, -1534.34, 0.00
-29, -1125.61, 0.00
-28, -1214.44, 0.00
-27, -845.70, 0.00
-26, -908.64, 0.00
-25, -593.42, 0.00
-24, -631.39, 0.00
-23, -390.10, 0.00
-22, -403.25, 0.00
-21, -246.14, 0.00
-20, -195.44, 0.00
-19, -95.60, 0.00
-18, 9.37, 0.00
-17, 14.19, 0.00
-16, 169.31, 0.00
-15, 320.48, 0.00
-14, 201.79, 0.00
-13, 454.99, 0.00
-12, 286.19, 0.00
-11, 561.32, 0.00
-10, 361.29, 0.00
-9, 663.06, 0.00
-8, 444.67, 0.00
-7, 725.18, 0.00
-6, 508.48, 0.00
-5, 786.13, 0.00
-4, 585.82, 0.00
-3, 812.75, 0.00
-2, 652.18, 0.00
-1, 840.72, 0.00
0, 721.67, 0.00
-29, 840.00, 0.00
-28, 784.66, 0.00
-27, 851.24, 0.00
-26, 853.57, 0.00
-25, 833.34, 0.00
-24, 906.43, 0.00
-23, 829.74, 0.00
-22, 949.99, 0.00
-21, 793.33, 0.00
-20, 962.82, 0.00
-19, 765.12, 0.00
-18, 990.92, 0.00
-17, 763.29, 0.00
-16, 985.64, 0.00
-15, 745.30, 0.00
-14, 1007.91, 0.00
-13, 748.20, 0.00
-12, 1012.20, 0.00
-11, 820.67, 0.00
-10, 1081.80, 0.00
-9, 899.14, 0.00
-8, 1114.48, 0.00
-7, 1007.17, 0.00
-6, 1178.63, 0.00
-5, 1109.27, 0.00
-4, 1221.32, 0.00
-3, 1209.27, 0.00
-2, 1246.09, 0.00
-1, 1306.21, 0.00
0, 1289.27, 0.00
-29, 1405.03, 0.00
-28, 1316.07, 0.00
-27, 1489.97, 0.00
-26, 1352.50, 0.00
-25, 1570.32, 0.00
-24, 1374.01, 0.00
-23, 1627.99, 0.00
-22, 1419.74, 0.00
-21, 1692.63, 0.00
-20, 1451.59, 0.00
-19, 1716.41, 0.00
-18, 1496.31, 0.00
-17, 1757.88, 0.00
-16, 1539.79, 0.00
-15, 1752.71, 0.00
-14, 1583.84, 0.00
-13, 1775.22, 0.00
-12, 1637.49, 0.00
-11, 1740.87, 0.00
-10, 1666.68, 0.00
-9, 1716.61, 0.00
-8, 1697.99, 0.00
-7, 1644.89, 0.00
-6, 1674.37, 0.00
-5, 1570.55, 0.00
-4, 1604.70, 0.00
-3, 1326.15, 0.00
-2, 1403.04, 0.00
-1, 1116.94, 0.00
0, 1231.34, 0.00
-29, 885.06, 0.00
-28, 1031.56, 0.00
-27, 661.68, 0.00
-26, 815.88, 0.00
-25, 455.89, 0.00
-24, 619.68, 0.00
-23, 253.16, 0.00
-22, 370.90, 0.00
-21, 72.29, 0.00
-20, 192.49, 0.00
-19, -74.90, 0.00
-18, -27.69, 0.00
-17, -210.96, 0.00
-16, -196.40, 0.00
-15, -324.12, 0.00
-14, -375.53, 0.00
-13, -401.26, 0.00
-12, -508.66, 0.00
-11, -479.62, 0.00
-10, -656.96, 0.00
-9, -549.36, 0.00
-8, -762.95, 0.00
-7, -613.00, 0.00
-6, -886.27, 0.00
-5, -651.37, 0.00
-4, -874.76, 0.00
-3, -579.96, 0.00
-2, -800.30, 0.00
-1, -451.71, 0.00
0, -584.12, 0.00
-29, -215.69, 0.00
-28, -353.63, 0.00
-27, -46.54, 0.00
-26, -123.23, 0.00
-25, 172.82, 0.00
-24, 135.52, 0.00
-23, 348.24, 0.00
-22, 369.34, 0.00
-21, 519.50, 0.00
-20, 606.25, 0.00
-19, 683.49, 0.00
-18, 829.27, 0.00
-17, 817.69, 0.00
-16, 1019.06, 0.00
-15, 964.52, 0.00
-14, 1219.11, 0.00
-13, 1078.94, 0.00
-12, 1364.51, 0.00
-11, 1196.91, 0.00
-10, 1505.68, 0.00
-9, 1302.73, 0.00
-8, 1622.27, 0.00
-7, 1410.73, 0.00
-6, 1707.16, 0.00
-5, 1502.26, 0.00
-4, 1785.43, 0.00
-3, 1603.25, 0.00
-2, 1829.02, 0.00
-1, 1692.12, 0.00
0, 1867.18, 0.00
-29, 1779.49, 0.00
-28, 1880.81, 0.00
-27, 1854.12, 0.00
-26, 1888.83, 0.00
-25, 1927.03, 0.00
-24, 1886.46, 0.00
-23, 1986.80, 0.00
-22, 1884.12, 0.00
-21, 2042.61, 0.00
-20, 1875.02, 0.00
-19, 2079.67, 0.00
-18, 1865.99, 0.00
-17, 2108.64, 0.00
-16, 1863.04, 0.00
-15, 2120.89, 0.00
-14, 1854.93, 0.00
-13, 2112.66, 0.00
-12, 1854.21, 0.00
-11, 2095.48, 0.00
-10, 1854.55, 0.00
-9, 2063.76, 0.00
-8, 1858.35, 0.00
-7, 2023.99, 0.00
-6, 1871.62, 0.00
-5, 1972.41, 0.00
-4, 1877.26, 0.00
-3, 1911.10, 0.00
-2, 1883.98, 0.00
-1, 1847.08, 0.00
0, 1883.34, 0.00
-29, 1783.02, 0.00
-28, 1885.68, 0.00
-27, 1721.84, 0.00
-26, 1878.02, 0.00
-25, 1659.44, 0.00
-24, 1858.50, 0.00
-23, 1599.04, 0.00
-22, 1828.33, 0.00
-21, 1545.53, 0.00
-20, 1784.12, 0.00
-19, 1497.86, 0.00
-18, 1734.00, 0.00
-17, 1462.65, 0.00
-16, 1675.24, 0.00
-15, 1436.08, 0.00
-14, 1615.00, 0.00
-13, 1419.49, 0.00
-12, 1547.55, 0.00
-11, 1413.08, 0.00
-10, 1475.86, 0.00
-9, 1402.10, 0.00
-8, 1394.44, 0.00
-7, 1396.78, 0.00
-6, 1325.86, 0.00
-5, 1390.81, 0.00
-4, 1252.28, 0.00
-3, 1379.42, 0.00
-2, 1182.23, 0.00
-1, 1361.85, 0.00
0, 1118.55, 0.00
-29, 1333.71, 0.00
-28, 1057.66, 0.00
-27, 1294.17, 0.00
-26, 1009.58, 0.00
-25, 1250.56, 0.00
-24, 963.70, 0.00
-23, 1190.25, 0.00
-22, 1098.21, 0.00
-21, 886.76, 0.00
-20, 1053.28, 0.00
-19, 870.58, 0.00
-18, 937.07, 0.00
-17, 818.21, 0.00
-16, 851.87, 0.00
-15, 806.03, 0.00
-14, 753.21, 0.00
-13, 774.69, 0.00
-12, 657.01, 0.00
-11, 741.92, 0.00
-10, 573.41, 0.00
-9, 718.68, 0.00
-8, 484.34, 0.00
-7, 672.61, 0.00
-6, 413.24, 0.00
-5, 640.96, 0.00
-4, 352.71, 0.00
-3, 587.27, 0.00
-2, 302.71, 0.00
-1, 541.23, 0.00
0, 266.92, 0.00
-29, 487.56, 0.00
-28, 249.49, 0.00
-27, 432.98, 0.00
-26, 243.99, 0.00
-25, 381.03, 0.00
-24, 251.77, 0.00
-23, 325.71, 0.00
-22, 254.65, 0.00
-21, 263.10, 0.00
-20, 276.92, 0.00
-19, 234.38, 0.00
-18, 326.74, 0.00
-17, 212.61, 0.00
-16, 361.03, 0.00
-15, 192.60, 0.00
-14, 393.32, 0.00
-13, 167.71, 0.00
-12, 401.12, 0.00
-11, 142.76, 0.00
-10, 391.60, 0.00
-9, 102.55, 0.00
-8, 356.29, 0.00
-7, 78.50, 0.00
-6, 321.33, 0.00
-5, 72.62, 0.00
-4, 297.73, 0.00
-3, 82.97, 0.00
-2, 258.50, 0.00
-1, 108.72, 0.00
0, 224.72, 0.00
-29, 123.54, 0.00
-28, 173.00, 0.00
-27, 144.64, 0.00
-26, 115.65, 0.00
-25, 142.16, 0.00
-24, 39.83, 0.00
-23, 150.07, 0.00
-22, -8.78, 0.00
-21, 143.10, 0.00
-20, -72.53, 0.00
-19, 138.36, 0.00
-18, -110.98, 0.00
-17, 130.60, 0.00
-16, -149.24, 0.00
-15, 102.80, 0.00
-14, -180.91, 0.00
-13, 70.54, 0.00
-12, -195.02, 0.00
-11, 40.39, 0.00
-10, -203.87, 0.00
-9, -12.56, 0.00
-8, -205.86, 0.00
-7, -64.46, 0.00
-6, -197.97, 0.00
-5, -125.35, 0.00
-4, -202.86, 0.00
-3, -194.86, 0.00
-2, -191.33, 0.00
-1, -251.64, 0.00
0, -178.41, 0.00
-29, -307.16, 0.00
-28, -167.68, 0.00
-27, -352.29, 0.00
-26, -160.62, 0.00
-25, -382.55, 0.00
-24, -134.80, 0.00
-23, -386.35, 0.00
-22, -111.87, 0.00
-21, -378.82, 0.00
-20, -103.24, 0.00
-19, -356.78, 0.00
-18, -84.60, 0.00
-17, -325.22, 0.00
-16, -92.29, 0.00
-15, -288.78, 0.00
-14, -89.68, 0.00
-13, -238.69, 0.00
-12, -113.06, 0.00
-11, -195.35, 0.00
-10, -123.78, 0.00
-9, -137.13, 0.00
-8, -141.64, 0.00
-7, -82.39, 0.00
-6, -158.41, 0.00
-5, -34.51, 0.00
-4, -173.40, 0.00
-3, 10.84, 0.00
-2, -187.31, 0.00
-1, 47.36, 0.00
0, -186.44, 0.00
-29, 76.44, 0.00
-28, -199.89, 0.00
-27, 71.48, 0.00
-26, -196.23, 0.00
-25, 85.92, 0.00
-24, -180.42, 0.00
-23, 70.56, 0.00
-22, -156.98, 0.00
-21, 60.33, 0.00
-20, -110.80, 0.00
-19, 63.75, 0.00
-18, -66.90, 0.00
-17, 21.93, 0.00
-16, -24.52, 0.00
-15, 9.59, 0.00
-14, 24.72, 0.00
-13, -35.67, 0.00
-12, 48.06, 0.00
-11, 92.31, 0.00
-10, -89.85, 0.00
-9, 115.92, 0.00
-8, -104.07, 0.00
-7, 146.52, 0.00
-6, -111.24, 0.00
-5, 156.75, 0.00
-4, -124.68, 0.00
-3, 152.82, 0.00
-2, -116.16, 0.00
-1, 154.34, 0.00
0, -92.02, 0.00
-29, 149.94, 0.00
-28, -54.54, 0.00
-27, 141.22, 0.00
-26, -6.39, 0.00
-25, 136.37, 0.00
-24, 56.80, 0.00
-23, 138.33, 0.00
-22, 147.23, 0.00
-21, 147.41, 0.00
-20, 205.86, 0.00
-19, 147.75, 0.00
-18, 276.13, 0.00
-17, 127.96, 0.00
-16, 316.79, 0.00
-15, 117.37, 0.00
-14, 350.43, 0.00
-13, 98.88, 0.00
-12, 366.90, 0.00
-11, 95.46, 0.00
-10, 370.66, 0.00
-9, 91.49, 0.00
-8, 371.06, 0.00
-7, 329.82, 0.00
-6, 94.26, 0.00
-5, 310.58, 0.00
-4, 119.92, 0.00
-3, 283.26, 0.00
-2, 155.30, 0.00
-1, 250.38, 0.00
0, 177.14, 0.00
-29, 179.66, 0.00
-28, 191.33, 0.00
-27, 163.55, 0.00
-26, 252.60, 0.00
-25, 125.77, 0.00
-24, 274.90, 0.00
-23, 102.53, 0.00
-22, 310.09, 0.00
-21, 81.94, 0.00
-20, 328.24, 0.00
-19, 56.21, 0.00
-18, 321.82, 0.00
-17, 37.77, 0.00
-16, 317.84, 0.00
-15, 33.46, 0.00
-14, 300.12, 0.00
-13, 36.86, 0.00
-12, 274.59, 0.00
-11, 54.11, 0.00
-10, 239.54, 0.00
-9, 67.17, 0.00
-8, 196.72, 0.00
-7, 98.79, 0.00
-6, 159.30, 0.00
-5, 128.81, 0.00
-4, 116.94, 0.00
-3, 161.92, 0.00
-2, 77.20, 0.00
-1, 194.08, 0.00
0, 44.50, 0.00
-29, 225.62, 0.00
-28, 17.90, 0.00
-27, 251.97, 0.00
-26, 7.33, 0.00
-25, 279.80, 0.00
-24, 5.36, 0.00
-23, 286.04, 0.00
-22, -1.83, 0.00
-21, 278.57, 0.00
-20, -0.74, 0.00
-19, 252.75, 0.00
-18, -0.47, 0.00
-17, 211.51, 0.00
-16, 5.34, 0.00
-15, 156.93, 0.00
-14, 14.08, 0.00
-13, 105.14, 0.00
-12, 28.95, 0.00
-11, 41.98, 0.00
-10, 39.03, 0.00
-9, -17.84, 0.00
-8, 59.46, 0.00
-7, -67.52, 0.00
-6, 72.73, 0.00
-5, -122.51, 0.00
-4, 81.58, 0.00
-3, -156.46, 0.00
-2, 88.78, 0.00
-1, -193.23, 0.00
0, 80.58, 0.00
-29, -204.65, 0.00
-28, 84.44, 0.00
-27, -209.88, 0.00
-26, -202.89, 0.00
-25, 48.66, 0.00
-24, -170.95, 0.00
-23, 27.36, 0.00
-22, -126.94, 0.00
-21, 24.56, 0.00
-20, -62.05, 0.00
-19, 17.05, 0.00
-18, 13.86, 0.00
-17, 23.40, 0.00
-16, 96.20, 0.00
-15, 35.63, 0.00
-14, 178.41, 0.00
-13, 43.21, 0.00
-12, 250.18, 0.00
-11, 64.37, 0.00
-10, 318.36, 0.00
-9, 78.05, 0.00
-8, 362.72, 0.00
-7, 86.66, 0.00
-6, 383.18, 0.00
-5, 113.44, 0.00
-4, 410.18, 0.00
-3, 126.76, 0.00
-2, 377.92, 0.00
-1, 128.75, 0.00
0, 340.10, 0.00
-29, 126.94, 0.00
-28, 277.41, 0.00
-27, 117.46, 0.00
-26, 190.06, 0.00
-25, 101.99, 0.00
-24, 121.66, 0.00
-23, 128.66, 0.00
-22, 68.35, 0.00
-21, 150.92, 0.00
-20, 43.07, 0.00
-19, 214.84, 0.00
-18, 35.74, 0.00
-17, 258.48, 0.00
-16, 38.44, 0.00
-15, 311.58, 0.00
-14, 51.88, 0.00
-13, 350.72, 0.00
-12, 68.96, 0.00
-11, 366.01, 0.00
-10, 71.26, 0.00
-9, 351.59, 0.00
-8, 83.93, 0.00
-7, 323.32, 0.00
-6, 112.34, 0.00
-5, 327.14, 0.00
-4, 157.60, 0.00
-3, 292.99, 0.00
-2, 186.06, 0.00
-1, 236.70, 0.00
0, 196.29, 0.00
-29, 172.78, 0.00
-28, 220.32, 0.00
-27, 130.80, 0.00
-26, 246.58, 0.00
-25, 74.03, 0.00
-24, 262.90, 0.00
-23, 57.49, 0.00
-22, 300.16, 0.00
-21, 31.00, 0.00
-20, 295.15, 0.00
-19, 2.84, 0.00
-18, 287.18, 0.00
-17, -16.18, 0.00
-16, 262.50, 0.00
-15, -28.99, 0.00
-14, 230.71, 0.00
-13, -27.00, 0.00
-12, 186.06, 0.00
-11, -17.72, 0.00
-10, 138.27, 0.00
-9, -8.27, 0.00
-8, 12.65, 0.00
-7, 14.01, 0.00
-6, 15.13, 0.00
-5, -38.29, 0.00
-4, 50.83, 0.00
-3, -80.69, 0.00
-2, 78.10, 0.00
-1, -115.69, 0.00
0, 106.39, 0.00
-29, -133.31, 0.00
-28, 134.94, 0.00
-27, -143.43, 0.00
-26, 141.64, 0.00
-25, -148.71, 0.00
-24, 156.66, 0.00
-23, -135.94, 0.00
-22, 144.41, 0.00
-21, -122.35, 0.00
-20, 135.94, 0.00
-19, -91.80, 0.00
-18, 109.93, 0.00
-17, -51.48, 0.00
-16, 90.44, 0.00
-15, -4.63, 0.00
-14, 66.72, 0.00
-13, 60.19, 0.00
-12, 52.93, 0.00
-11, 109.32, 0.00
-10, 23.58, 0.00
-9, 166.01, 0.00
-8, 20.34, 0.00
-7, 223.74, 0.00
-6, 6.35, 0.00
-5, 257.58, 0.00
-4, -0.96, 0.00
-3, 291.62, 0.00
-2, 6.33, 0.00
-1, 303.42, 0.00
0, 6.71, 0.00
-29, 308.12, 0.00
-28, 26.15, 0.00
-27, 301.35, 0.00
-26, 56.73, 0.00
-25, 290.28, 0.00
-24, 96.25, 0.00
-23, 276.74, 0.00
-22, 162.94, 0.00
-21, 280.45, 0.00
-20, 231.43, 0.00
-19, 268.38, 0.00
-18, 303.60, 0.00
-17, 267.68, 0.00
-16, 376.00, 0.00
-15, 258.59, 0.00
-14, 439.99, 0.00
-13, 260.62, 0.00
-12, 494.38, 0.00
-11, 256.62, 0.00
-10, 529.47, 0.00
-9, 255.84, 0.00
-8, 560.96, 0.00
-7, 267.17, 0.00
-6, 568.34, 0.00
-5, 272.85, 0.00
-4, 567.13, 0.00
-3, 299.45, 0.00
-2, 549.61, 0.00
-1, 323.59, 0.00
0, 530.50, 0.00
-29, 358.99, 0.00
-28, 497.55, 0.00
-27, 401.97, 0.00
-26, 468.69, 0.00
-25, 448.22, 0.00
-24, 436.69, 0.00
-23, 499.47, 0.00
-22, 405.71, 0.00
-21, 536.11, 0.00
-20, 377.41, 0.00
-19, 579.16, 0.00
-18, 353.45, 0.00
-17, 600.41, 0.00
-16, 333.71, 0.00
-15, 622.34, 0.00
-14, 325.91, 0.00
-13, 630.54, 0.00
-12, 325.28, 0.00
-11, 626.36, 0.00
-10, 340.57, 0.00
-9, 620.42, 0.00
-8, 361.70, 0.00
-7, 586.49, 0.00
-6, 385.21, 0.00
-5, 557.54, 0.00
-4, 416.52, 0.00
-3, 510.60, 0.00
-2, 445.72, 0.00
-1, 467.37, 0.00
0, 477.12, 0.00
-29, 377.32, 0.00
-28, 535.88, 0.00
-27, 331.16, 0.00
-26, 559.42, 0.00
-25, 302.73, 0.00
-24, 569.12, 0.00
-23, 278.50, 0.00
-22, 577.10, 0.00
-21, 273.54, 0.00
-20, 580.30, 0.00
-19, 278.03, 0.00
-18, 569.43, 0.00
-17, 295.38, 0.00
-16, 563.40, 0.00
-15, 335.66, 0.00
-14, 540.44, 0.00
-13, 375.49, 0.00
-12, 522.74, 0.00
-11, 429.82, 0.00
-10, 493.68, 0.00
-9, 476.81, 0.00
-8, 460.45, 0.00
-7, 519.39, 0.00
-6, 423.30, 0.00
-5, 556.60, 0.00
-4, 381.79, 0.00
-3, 579.71, 0.00
-2, 348.22, 0.00
-1, 608.06, 0.00
0, 324.30, 0.00
-29, 609.55, 0.00
-28, 304.52, 0.00
-27, 608.15, 0.00
-26, 296.00, 0.00
-25, 600.68, 0.00
-24, 296.47, 0.00
-23, 568.05, 0.00
-22, 309.68, 0.00
-21, 551.48, 0.00
-20, 342.43, 0.00
-19, 504.55, 0.00
-18, 370.48, 0.00
-17, 476.49, 0.00
-16, 412.48, 0.00
-15, 426.36, 0.00
-14, 446.74, 0.00
-13, 382.84, 0.00
-12, 471.64, 0.00
-11, 328.75, 0.00
-10, 496.54, 0.00
-9, 279.55, 0.00
-8, 498.29, 0.00
-7, 229.11, 0.00
-6, 501.95, 0.00
-5, 192.49, 0.00
-4, 487.34, 0.00
-3, 167.62, 0.00
-2, 470.10, 0.00
-1, 152.60, 0.00
0, 443.70, 0.00
-29, 161.11, 0.00
-28, 425.93, 0.00
-27, 188.20, 0.00
-26, 394.44, 0.00
-25, 218.60, 0.00
-24, 362.17, 0.00
-23, 270.30, 0.00
-22, 333.15, 0.00
-21, 285.97, 0.00
-20, 356.47, 0.00
-19, 249.51, 0.00
-18, 389.08, 0.00
-17, 212.10, 0.00
-16, 424.79, 0.00
-15, 197.12, 0.00
-14, 471.29, 0.00
-13, 176.00, 0.00
-12, 461.16, 0.00
-11, 159.26, 0.00
-10, 479.13, 0.00
-9, 148.01, 0.00
-8, 439.99, 0.00
-7, 135.74, 0.00
-6, 415.59, 0.00
-5, 134.71, 0.00
-4, 346.83, 0.00
-3, 128.05, 0.00
-2, 293.50, 0.00
-1, 137.40, 0.00
0, 215.63, 0.00
-29, 141.46, 0.00
-28, 145.71, 0.00
-27, 153.15, 0.00
-26, 73.43, 0.00
-25, 162.41, 0.00
-24, 2.84, 0.00
-23, 161.49, 0.00
-22, -54.94, 0.00
-21, 176.91, 0.00
-20, -97.48, 0.00
-19, 176.85, 0.00
-18, -133.17, 0.00
-17, 171.42, 0.00
-16, -146.27, 0.00
-15, -157.45, 0.00
-14, 128.54, 0.00
-13, -148.66, 0.00
-12, 121.59, 0.00
-11, -122.29, 0.00
-10, 72.78, 0.00
-9, -102.86, 0.00
-8, 33.64, 0.00
-7, -64.08, 0.00
-6, -8.78, 0.00
-5, -29.57, 0.00
-4, -59.93, 0.00
-3, 3.98, 0.00
-2, -87.93, 0.00
-1, 56.71, 0.00
0, -131.12, 0.00
-29, 80.47, 0.00
-28, -144.50, 0.00
-27, 127.43, 0.00
-26, -162.92, 0.00
-25, 140.50, 0.00
-24, -160.91, 0.00
-23, 168.69, 0.00
-22, -148.75, 0.00
-21, 167.06, 0.00
-20, -120.05, 0.00
-19, 183.82, 0.00
-18, -73.07, 0.00
-17, 165.92, 0.00
-16, -23.31, 0.00
-15, 191.67, 0.00
-14, 36.52, 0.00
-13, 100.00, 0.00
-12, 71.03, 0.00
-11, 161.65, 0.00
-10, 190.06, 0.00
-9, 77.16, 0.00
-8, 182.03, 0.00
-7, 30.85, 0.00
-6, 218.76, 0.00
-5, 8.25, 0.00
-4, 252.57, 0.00
-3, -78.59, 0.00
-2, 196.74, 0.00
-1, -68.80, 0.00
0, 273.52, 0.00
-29, -120.16, 0.00
-28, 159.97, 0.00
-27, -119.25, 0.00
-26, 214.64, 0.00
-25, -118.26, 0.00
-24, 111.76, 0.00
-23, -115.13, 0.00
-22, 103.56, 0.00
-21, -95.53, 0.00
-20, 22.17, 0.00
-19, -84.89, 0.00
-18, -36.19, 0.00
-17, -57.98, 0.00
-16, -80.29, 0.00
-15, -16.07, 0.00
-14, -147.19, 0.00
-13, -6.01, 0.00
-12, -191.93, 0.00
-11, 24.18, 0.00
-10, -223.96, 0.00
-9, 47.14, 0.00
-8, -260.67, 0.00
-7, 39.83, 0.00
-6, -270.72, 0.00
-5, 61.02, 0.00
-4, -277.47, 0.00
-3, 25.48, 0.00
-2, -271.53, 0.00
-1, 25.79, 0.00
0, -248.15, 0.00
-29, -26.84, 0.00
-28, -240.15, 0.00
-27, -63.19, 0.00
-26, -208.47, 0.00
-25, -118.22, 0.00
-24, -186.50, 0.00
-23, -180.89, 0.00
-22, -157.56, 0.00
-21, -226.69, 0.00
-20, -124.77, 0.00
-19, -287.94, 0.00
-18, -113.03, 0.00
-17, -327.18, 0.00
-16, -87.71, 0.00
-15, -373.30, 0.00
-14, -93.83, 0.00
-13, -406.96, 0.00
-12, -94.86, 0.00
-11, -427.30, 0.00
-10, -109.17, 0.00
-9, -431.03, 0.00
-8, -137.57, 0.00
-7, -435.77, 0.00
-6, -177.72, 0.00
-5, -426.47, 0.00
-4, -222.53, 0.00
-3, -432.01, 0.00
-2, -322.13, 0.00
-1, -431.72, 0.00
0, -378.46, 0.00
-29, -415.41, 0.00
-28, -468.11, 0.00
-27, -419.18, 0.00
-26, -419.41, 0.00
-25, -622.09, 0.00
-24, -424.73, 0.00
-23, -694.07, 0.00
-22, -439.41, 0.00
-21, -756.72, 0.00
-20, -468.51, 0.00
-19, -812.51, 0.00
-18, -506.07, 0.00
-17, -857.32, 0.00
-16, -552.69, 0.00
-15, -881.44, 0.00
-14, -613.53, 0.00
-13, -922.46, 0.00
-12, -699.27, 0.00
-11, -929.83, 0.00
-10, -769.26, 0.00
-9, -942.33, 0.00
-8, -861.30, 0.00
-7, -935.67, 0.00
-6, -924.60, 0.00
-5, -916.73, 0.00
-4, -1011.04, 0.00
-3, -931.80, 0.00
-2, -1106.66, 0.00
-1, -934.57, 0.00
0, -1176.28, 0.00
-29, -949.86, 0.00
-28, -1251.34, 0.00
-27, -952.88, 0.00
-26, -1268.62, 0.00
-25, -948.32, 0.00
-24, -1298.06, 0.00
-23, -971.43, 0.00
-22, -1289.78, 0.00
-21, -967.58, 0.00
-20, -1269.85, 0.00
-19, -986.76, 0.00
-18, -1222.55, 0.00
-17, -988.44, 0.00
-16, -1160.14, 0.00
-15, -990.54, 0.00
-14, -1064.48, 0.00
-13, -988.39, 0.00
-12, -990.03, 0.00
-11, -987.39, 0.00
-10, -880.50, 0.00
-9, -964.37, 0.00
-8, -795.61, 0.00
-7, -967.54, 0.00
-6, -712.33, 0.00
-5, -936.23, 0.00
-4, -630.50, 0.00
-3, -926.88, 0.00
-2, -596.46, 0.00
-1, -898.43, 0.00
0, -539.39, 0.00
-29, -866.91, 0.00
-28, -539.15, 0.00
-27, -842.35, 0.00
-26, -526.16, 0.00
-25, -808.08, 0.00
-24, -573.14, 0.00
-23, -788.88, 0.00
-22, -600.84, 0.00
-21, -743.80, 0.00
-20, -644.07, 0.00
-19, -697.40, 0.00
-18, -678.49, 0.00
-17, -649.18, 0.00
-16, -713.96, 0.00
-15, -597.75, 0.00
-14, -746.30, 0.00
-13, -757.23, 0.00
-12, -488.54, 0.00
-11, -764.59, 0.00
-10, -448.85, 0.00
-9, -757.14, 0.00
-8, -424.35, 0.00
-7, -758.84, 0.00
-6, -415.00, 0.00
-5, -736.76, 0.00
-4, -419.61, 0.00
-3, -719.57, 0.00
-2, -438.41, 0.00
-1, -689.04, 0.00
0, -464.45, 0.00
-29, -639.37, 0.00
-28, -490.42, 0.00
-27, -591.94, 0.00
-26, -527.34, 0.00
-25, -531.75, 0.00
-24, -555.24, 0.00
-23, -480.47, 0.00
-22, -582.91, 0.00
-21, -414.89, 0.00
-20, -595.25, 0.00
-19, -360.04, 0.00
-18, -609.02, 0.00
-17, -315.11, 0.00
-16, -605.96, 0.00
-15, -273.52, 0.00
-14, -598.07, 0.00
-13, -256.13, 0.00
-12, -582.20, 0.00
-11, -235.59, 0.00
-10, -245.24, 0.00
-9, -515.77, 0.00
-8, -253.33, 0.00
-7, -470.93, 0.00
-6, -289.48, 0.00
-5, -430.74, 0.00
-4, -326.98, 0.00
-3, -395.42, 0.00
-2, -383.06, 0.00
-1, -355.62, 0.00
0, -427.79, 0.00
-29, -321.02, 0.00
-28, -480.67, 0.00
-27, -290.57, 0.00
-26, -516.86, 0.00
-25, -252.80, 0.00
-24, -532.17, 0.00
-23, -221.08, 0.00
-22, -533.80, 0.00
-21, -187.26, 0.00
-20, -515.05, 0.00
-19, -173.16, 0.00
-18, -503.36, 0.00
-17, -177.63, 0.00
-16, -477.37, 0.00
-15, -189.52, 0.00
-14, -431.97, 0.00
-13, -195.24, 0.00
-12, -367.33, 0.00
-11, -210.22, 0.00
-10, -296.81, 0.00
-9, -222.96, 0.00
-8, -229.46, 0.00
-7, -245.56, 0.00
-6, -158.81, 0.00
-5, -261.11, 0.00
-4, -98.55, 0.00
-3, -277.77, 0.00
-2, -33.53, 0.00
-1, -280.11, 0.00
0, 22.55, 0.00
-29, -267.86, 0.00
-28, 71.46, 0.00
-27, -251.66, 0.00
-26, 107.47, 0.00
-25, -212.21, 0.00
-24, 137.73, 0.00
-23, -168.73, 0.00
-22, 153.82, 0.00
-21, -115.67, 0.00
-20, 153.42, 0.00
-19, -50.43, 0.00
-18, 151.48, 0.00
-17, 15.69, 0.00
-16, 131.09, 0.00
-15, 82.10, 0.00
-14, 117.17, 0.00
-13, 156.51, 0.00
-12, 98.19, 0.00
-11, 230.51, 0.00
-10, 87.19, 0.00
-9, 295.45, 0.00
-8, 353.83, 0.00
-7, 76.02, 0.00
-6, 386.24, 0.00
-5, 68.87, 0.00
-4, 416.90, 0.00
-3, 86.01, 0.00
-2, 440.24, 0.00
-1, 106.51, 0.00
0, 439.57, 0.00
-29, 144.71, 0.00
-28, 442.43, 0.00
-27, 194.17, 0.00
-26, 422.81, 0.00
-25, 244.51, 0.00
-24, 403.67, 0.00
-23, 302.69, 0.00
-22, 368.13, 0.00
-21, 351.03, 0.00
-20, 324.68, 0.00
-19, 395.13, 0.00
-18, 288.36, 0.00
-17, 441.85, 0.00
-16, 239.59, 0.00
-15, 472.87, 0.00
-14, 218.69, 0.00
-13, 505.46, 0.00
-12, 177.38, 0.00
-11, 494.09, 0.00
-10, 140.15, 0.00
-9, 468.02, 0.00
-8, 88.94, 0.00
-7, 409.95, 0.00
-6, 53.89, 0.00
-5, 343.86, 0.00
-4, 22.22, 0.00
-3, 256.37, 0.00
-2, 0.83, 0.00
-1, 167.71, 0.00
0, -17.88, 0.00
-29, 55.43, 0.00
-28, -42.98, 0.00
-27, -47.45, 0.00
-26, -68.58, 0.00
-25, -191.47, 0.00
-24, -112.09, 0.00
-23, -295.85, 0.00
-22, -124.66, 0.00
-21, -393.64, 0.00
-20, -159.10, 0.00
-19, -494.20, 0.00
-18, -195.24, 0.00
-17, -531.55, 0.00
-16, -179.84, 0.00
-15, -540.22, 0.00
-14, -168.24, 0.00
-13, -479.22, 0.00
-12, -103.78, 0.00
-11, -420.10, 0.00
-10, -108.54, 0.00
-9, -334.23, 0.00
-8, -63.95, 0.00
-7, -250.61, 0.00
-6, -78.92, 0.00
-5, -152.39, 0.00
-4, -50.49, 0.00
-3, -56.35, 0.00
-2, -65.49, 0.00
-1, 38.85, 0.00
0, -49.26, 0.00
-29, 127.34, 0.00
-28, -58.54, 0.00
-27, 203.11, 0.00
-26, -45.49, 0.00
-25, 273.21, 0.00
-24, -36.90, 0.00
-23, 313.84, 0.00
-22, -20.76, 0.00
-21, 350.90, 0.00
-20, 7.76, 0.00
-19, 366.93, 0.00
-18, 368.94, 0.00
-17, 76.04, 0.00
-16, 351.75, 0.00
-15, 129.93, 0.00
-14, 332.57, 0.00
-13, 180.80, 0.00
-12, 297.30, 0.00
-11, 238.36, 0.00
-10, 262.74, 0.00
-9, 287.82, 0.00
-8, 219.76, 0.00
-7, 345.45, 0.00
-6, 184.25, 0.00
-5, 387.76, 0.00
-4, 156.35, 0.00
-3, 431.30, 0.00
-2, 128.25, 0.00
-1, 451.26, 0.00
0, 107.78, 0.00
-29, 453.99, 0.00
-28, 94.97, 0.00
-27, 451.77, 0.00
-26, 99.09, 0.00
-25, 429.69, 0.00
-24, 103.20, 0.00
-23, 405.19, 0.00
-22, 130.22, 0.00
-21, 358.92, 0.00
-20, 166.63, 0.00
-19, 317.04, 0.00
-18, 194.55, 0.00
-17, 248.86, 0.00
-16, 225.53, 0.00
-15, 193.90, 0.00
-14, 262.81, 0.00
-13, 134.69, 0.00
-12, 289.90, 0.00
-11, 83.84, 0.00
-10, 318.07, 0.00
-9, 41.02, 0.00
-8, 343.17, 0.00
-7, 13.72, 0.00
-6, 353.60, 0.00
-5, -1.01, 0.00
-4, 355.75, 0.00
-3, 3.73, 0.00
-2, 358.28, 0.00
-1, 17.43, 0.00
0, 336.42, 0.00
-29, 39.58, 0.00
-28, 316.66, 0.00
-27, 81.32, 0.00
-26, 276.09, 0.00
-25, 122.60, 0.00
-24, 240.08, 0.00
-23, 176.69, 0.00
-22, 196.02, 0.00
-21, 228.79, 0.00
-20, 152.82, 0.00
-19, 270.59, 0.00
-18, 106.89, 0.00
-17, 313.97, 0.00
-16, 71.48, 0.00
-15, 347.70, 0.00
-14, 44.84, 0.00
-13, 371.13, 0.00
-12, 27.72, 0.00
-11, 384.16, 0.00
-10, 20.43, 0.00
-9, 380.56, 0.00
-8, 37.04, 0.00
-7, 380.45, 0.00
-6, 57.91, 0.00
-5, 354.16, 0.00
-4, 90.73, 0.00
-3, 334.11, 0.00
-2, 135.30, 0.00
-1, 285.57, 0.00
0, 177.12, 0.00
-29, 240.88, 0.00
-28, 224.43, 0.00
-27, 194.35, 0.00
-26, 271.08, 0.00
-25, 143.81, 0.00
-24, 301.79, 0.00
-23, 96.00, 0.00
-22, 341.15, 0.00
-21, 54.40, 0.00
-20, 355.97, 0.00
-19, 23.63, 0.00
-18, 366.19, 0.00
-17, 8.25, 0.00
-16, 372.36, 0.00
-15, 1.16, 0.00
-14, 347.99, 0.00
-13, 7.80, 0.00
-12, 339.52, 0.00
-11, 33.53, 0.00
-10, 293.37, 0.00
-9, 65.71, 0.00
-8, 270.99, 0.00
-7, 106.95, 0.00
-6, 206.13, 0.00
-5, 143.54, 0.00
-4, 169.11, 0.00
-3, 199.04, 0.00
-2, 108.38, 0.00
-1, 233.60, 0.00
0, 80.33, 0.00
-29, 289.88, 0.00
-28, 43.12, 0.00
-27, 313.06, 0.00
-26, 24.45, 0.00
-25, 364.83, 0.00
-24, 12.45, 0.00
-23, 368.69, 0.00
-22, 41.06, 0.00
-21, 424.95, 0.00
-20, 49.64, 0.00
-19, 373.21, 0.00
-18, 154.67, 0.00
-17, 528.78, 0.00
-16, 266.99, 0.00
-15, 478.55, 0.00
-14, 424.37, 0.00
-13, 720.82, 0.00
-12, 705.94, 0.00
-11, 842.15, 0.00
-10, 968.26, 0.00
-9, 1077.60, 0.00
-8, 1267.54, 0.00
-7, 1251.09, 0.00
-6, 1521.75, 0.00
-5, 1440.73, 0.00
-4, 1757.12, 0.00
-3, 1585.86, 0.00
-2, 1971.24, 0.00
-1, 1802.31, 0.00
0, 2221.90, 0.00
-29, 2003.21, 0.00
-28, 2394.81, 0.00
-27, 2112.04, 0.00
-26, 2477.06, 0.00
-25, 2260.03, 0.00
-24, 2583.21, 0.00
-23, 2304.71, 0.00
-22, 2528.43, 0.00
-21, 2356.95, 0.00
-20, 2523.56, 0.00
-19, 2308.26, 0.00
-18, 2326.79, 0.00
-17, 2283.50, 0.00
-16, 2306.52, 0.00
-15, 2283.21, 0.00
-14, 2145.79, 0.00
-13, 2244.27, 0.00
-12, 2095.43, 0.00
-11, 2246.73, 0.00
-10, 1979.11, 0.00
-9, 2194.00, 0.00
-8, 1889.75, 0.00
-7, 2137.52, 0.00
-6, 1774.53, 0.00
-5, 2029.76, 0.00
-4, 1666.97, 0.00
-3, 1956.18, 0.00
-2, 1603.31, 0.00
-1, 1855.28, 0.00
0, 1534.51, 0.00
-29, 1753.85, 0.00
-28, 1451.59, 0.00
-27, 1596.79, 0.00
-26, 1385.03, 0.00
-25, 1500.29, 0.00
-24, 1365.58, 0.00
-23, 1364.60, 0.00
-22, 1320.99, 0.00
-21, 1284.53, 0.00
-20, 1332.41, 0.00
-19, 1177.24, 0.00
-18, 1298.32, 0.00
-17, 1109.63, 0.00
-16, 1320.16, 0.00
-15, 1041.19, 0.00
-14, 1291.39, 0.00
-13, 990.56, 0.00
-12, 1295.37, 0.00
-11, 1276.02, 0.00
-10, 939.09, 0.00
-9, 1244.12, 0.00
-8, 943.91, 0.00
-7, 1244.70, 0.00
-6, 974.69, 0.00
-5, 1202.84, 0.00
-4, 979.79, 0.00
-3, 1148.59, 0.00
-2, 1003.06, 0.00
-1, 1096.22, 0.00
0, 1010.37, 0.00
-29, 1019.51, 0.00
-28, 933.07, 0.00
-27, 1022.17, 0.00
-26, 821.65, 0.00
-25, 962.96, 0.00
-24, 711.61, 0.00
-23, 937.92, 0.00
-22, 620.48, 0.00
-21, 886.13, 0.00
-20, 535.84, 0.00
-19, 840.27, 0.00
-18, 490.17, 0.00
-17, 808.28, 0.00
-16, 458.59, 0.00
-15, 752.54, 0.00
-14, 448.67, 0.00
-13, 716.75, 0.00
-12, 445.31, 0.00
-11, 629.34, 0.00
-10, 445.05, 0.00
-9, 577.79, 0.00
-8, 451.86, 0.00
-7, 475.60, 0.00
-6, 449.87, 0.00
-5, 412.79, 0.00
-4, 469.72, 0.00
-3, 325.33, 0.00
-2, 448.55, 0.00
-1, 227.43, 0.00
0, 422.72, 0.00
-29, 129.17, 0.00
-28, 375.96, 0.00
-27, 31.36, 0.00
-26, 311.67, 0.00
-25, -58.49, 0.00
-24, 243.57, 0.00
-23, -115.31, 0.00
-22, 184.16, 0.00
-21, -163.82, 0.00
-20, 100.23, 0.00
-19, -192.02, 0.00
-18, 33.39, 0.00
-17, -207.76, 0.00
-16, -57.44, 0.00
-15, -214.26, 0.00
-14, -138.36, 0.00
-13, -223.76, 0.00
-12, -239.25, 0.00
-11, -230.16, 0.00
-10, -337.87, 0.00
-9, -244.28, 0.00
-8, -422.20, 0.00
-7, -254.77, 0.00
-6, -518.87, 0.00
-5, -285.90, 0.00
-4, -596.10, 0.00
-3, -317.77, 0.00
-2, -674.71, 0.00
-1, -366.64, 0.00
0, -730.37, 0.00
-29, -416.93, 0.00
-28, -764.68, 0.00
-27, -466.68, 0.00
-26, -783.92, 0.00
-25, -524.48, 0.00
-24, -773.82, 0.00
-23, -560.81, 0.00
-22, -752.00, 0.00
-21, -620.17, 0.00
-20, -716.28, 0.00
-19, -657.36, 0.00
-18, -674.40, 0.00
-17, -717.25, 0.00
-16, -640.91, 0.00
-15, -761.39, 0.00
-14, -602.92, 0.00
-13, -809.00, 0.00
-12, -580.14, 0.00
-11, -844.69, 0.00
-10, -562.08, 0.00
-9, -875.56, 0.00
-8, -552.80, 0.00
-7, -887.41, 0.00
-6, -543.08, 0.00
-5, -884.12, 0.00
-4, -554.26, 0.00
-3, -867.92, 0.00
-2, -559.35, 0.00
-1, -833.27, 0.00
0, -588.12, 0.00
-29, -801.33, 0.00
-28, -617.74, 0.00
-27, -757.97, 0.00
-26, -660.05, 0.00
-25, -716.73, 0.00
-24, -710.45, 0.00
-23, -679.05, 0.00
-22, -758.91, 0.00
-21, -644.04, 0.00
-20, -822.81, 0.00
-19, -638.79, 0.00
-18, -881.02, 0.00
-17, -629.31, 0.00
-16, -935.24, 0.00
-15, -641.16, 0.00
-14, -988.37, 0.00
-13, -676.72, 0.00
-12, -1045.32, 0.00
-11, -726.01, 0.00
-10, -1087.17, 0.00
-9, -794.40, 0.00
-8, -1117.65, 0.00
-7, -857.28, 0.00
-6, -1129.08, 0.00
-5, -931.71, 0.00
-4, -1122.82, 0.00
-3, -994.92, 0.00
-2, -1112.87, 0.00
-1, -1070.63, 0.00
0, -1084.33, 0.00
-29, -1127.13, 0.00
-28, -1062.13, 0.00
-27, -1194.90, 0.00
-26, -1028.52, 0.00
-25, -1229.82, 0.00
-24, -997.60, 0.00
-23, -1263.45, 0.00
-22, -964.30, 0.00
-21, -1261.24, 0.00
-20, -919.62, 0.00
-19, -1246.98, 0.00
-18, -890.94, 0.00
-17, -1212.22, 0.00
-16, -854.10, 0.00
-15, -1162.85, 0.00
-14, -847.60, 0.00
-13, -1106.03, 0.00
-12, -828.96, 0.00
-11, -1024.40, 0.00
-10, -827.04, 0.00
-9, -943.49, 0.00
-8, -821.99, 0.00
-7, -856.97, 0.00
-6, -824.44, 0.00
-5, -761.26, 0.00
-4, -817.36, 0.00
-3, -671.78, 0.00
-2, -813.16, 0.00
-1, -587.07, 0.00
0, -805.18, 0.00
-29, -517.69, 0.00
-28, -789.87, 0.00
-27, -465.99, 0.00
-26, -802.41, 0.00
-25, -458.17, 0.00
-24, -794.34, 0.00
-23, -444.49, 0.00
-22, -786.13, 0.00
-21, -456.13, 0.00
-20, -753.90, 0.00
-19, -459.37, 0.00
-18, -692.32, 0.00
-17, -463.66, 0.00
-16, -640.15, 0.00
-15, -494.20, 0.00
-14, -566.93, 0.00
-13, -487.18, 0.00
-12, -485.01, 0.00
-11, -513.24, 0.00
-10, -408.86, 0.00
-9, -520.51, 0.00
-8, -345.74, 0.00
-7, -295.40, 0.00
-6, -552.07, 0.00
-5, -242.99, 0.00
-4, -552.33, 0.00
-3, -215.52, 0.00
-2, -552.51, 0.00
-1, -193.74, 0.00
0, -536.58, 0.00
-29, -197.46, 0.00
-28, -512.23, 0.00
-27, -194.08, 0.00
-26, -471.26, 0.00
-25, -215.92, 0.00
-24, -419.10, 0.00
-23, -223.03, 0.00
-22, -356.42, 0.00
-21, -256.93, 0.00
-20, -303.92, 0.00
-19, -291.06, 0.00
-18, -246.61, 0.00
-17, -322.89, 0.00
-16, -187.64, 0.00
-15, -347.99, 0.00
-14, -135.34, 0.00
-13, -369.50, 0.00
-12, -94.26, 0.00
-11, -390.33, 0.00
-10, -63.99, 0.00
-9, -394.62, 0.00
-8, -48.17, 0.00
-7, -393.57, 0.00
-6, -41.89, 0.00
-5, -377.41, 0.00
-4, -42.29, 0.00
-3, -330.76, 0.00
-2, -23.67, 0.00
-1, -262.66, 0.00
0, -27.51, 0.00
-29, -190.50, 0.00
-28, -30.02, 0.00
-27, -114.64, 0.00
-26, -51.07, 0.00
-25, -42.40, 0.00
-24, -67.55, 0.00
-23, 28.59, 0.00
-22, -81.58, 0.00
-21, 99.06, 0.00
-20, -98.30, 0.00
-19, 152.68, 0.00
-18, -107.58, 0.00
-17, 205.39, 0.00
-16, -104.67, 0.00
-15, 243.79, 0.00
-14, -91.17, 0.00
-13, 269.70, 0.00
-12, -59.63, 0.00
-11, 298.69, 0.00
-10, -18.89, 0.00
-9, 310.38, 0.00
-8, 60.51, 0.00
-7, 350.70, 0.00
-6, 156.28, 0.00
-5, 363.86, 0.00
-4, 252.75, 0.00
-3, 385.63, 0.00
-2, 361.00, 0.00
-1, 389.64, 0.00
0, 452.18, 0.00
-29, 390.89, 0.00
-28, 536.42, 0.00
-27, 389.97, 0.00
-26, 617.76, 0.00
-25, 388.07, 0.00
-24, 675.74, 0.00
-23, 391.45, 0.00
-22, 730.43, 0.00
-21, 404.30, 0.00
-20, 760.16, 0.00
-19, 417.06, 0.00
-18, 774.40, 0.00
-17, 444.49, 0.00
-16, 783.72, 0.00
-15, 475.47, 0.00
-14, 761.66, 0.00
-13, 513.22, 0.00
-12, 746.08, 0.00
-11, 569.97, 0.00
-10, 710.14, 0.00
-9, 615.61, 0.00
-8, 668.14, 0.00
-7, 660.49, 0.00
-6, 619.05, 0.00
-5, 700.26, 0.00
-4, 560.96, 0.00
-3, 719.68, 0.00
-2, 501.89, 0.00
-1, 737.21, 0.00
0, 451.42, 0.00
-29, 742.55, 0.00
-28, 408.01, 0.00
-27, 734.14, 0.00
-26, 370.73, 0.00
-25, 715.95, 0.00
-24, 350.97, 0.00
-23, 675.20, 0.00
-22, 332.50, 0.00
-21, 633.56, 0.00
-20, 334.18, 0.00
-19, 572.54, 0.00
-18, 339.70, 0.00
-17, 510.56, 0.00
-16, 349.00, 0.00
-15, 428.51, 0.00
-14, 367.57, 0.00
-13, 357.43, 0.00
-12, 376.47, 0.00
-11, 270.93, 0.00
-10, 387.02, 0.00
-9, 202.28, 0.00
-8, 392.34, 0.00
-7, 125.04, 0.00
-6, 380.14, 0.00
-5, 61.02, 0.00
-4, 368.58, 0.00
-3, 9.34, 0.00
-2, 337.73, 0.00
-1, -32.92, 0.00
0, 306.44, 0.00
-29, -54.52, 0.00
-28, 257.02, 0.00
-27, -66.94, 0.00
-26, 206.51, 0.00
-25, -66.03, 0.00
-24, 140.79, 0.00
-23, -52.66, 0.00
-22, 76.33, 0.00
-21, -34.82, 0.00
-20, 6.30, 0.00
-19, -7.31, 0.00
-18, -59.86, 0.00
-17, 14.71, 0.00
-16, -122.44, 0.00
-15, 42.22, 0.00
-14, -175.77, 0.00
-13, 60.39, 0.00
-12, -224.72, 0.00
-11, 70.34, 0.00
-10, -266.10, 0.00
-9, 65.09, 0.00
-8, -296.99, 0.00
-7, 45.22, 0.00
-6, -319.16, 0.00
-5, 27.22, 0.00
-4, -307.16, 0.00
-3, 5.21, 0.00
-2, -278.68, 0.00
-1, -18.75, 0.00
0, -241.67, 0.00
-29, -58.09, 0.00
-28, -198.93, 0.00
-27, -94.99, 0.00
-26, -151.14, 0.00
-25, -145.78, 0.00
-24, -101.66, 0.00
-23, -183.98, 0.00
-22, -48.64, 0.00
-21, -216.48, 0.00
-20, -2.46, 0.00
-19, -251.39, 0.00
-18, 24.45, 0.00
-17, -282.08, 0.00
-16, 42.56, 0.00
-15, -309.95, 0.00
-14, 37.66, 0.00
-13, -325.51, 0.00
-12, 27.56, 0.00
-11, -324.55, 0.00
-10, 5.10, 0.00
-9, -318.87, 0.00
-8, -37.89, 0.00
-7, -292.58, 0.00
-6, -65.80, 0.00
-5, -260.64, 0.00
-4, -120.43, 0.00
-3, -215.94, 0.00
-2, -158.45, 0.00
-1, -163.79, 0.00
0, -206.04, 0.00
-29, -115.60, 0.00
-28, -245.38, 0.00
-27, -68.78, 0.00
-26, -276.76, 0.00
-25, -21.93, 0.00
-24, -301.10, 0.00
-23, 11.82, 0.00
-22, -310.49, 0.00
-21, 39.12, 0.00
-20, -313.57, 0.00
-19, 55.21, 0.00
-18, -301.93, 0.00
-17, 54.00, 0.00
-16, -271.91, 0.00
-15, 54.63, 0.00
-14, -234.54, 0.00
-13, 23.65, 0.00
-12, -190.24, 0.00
-11, 6.82, 0.00
-10, -138.54, 0.00
-9, -39.54, 0.00
-8, -85.36, 0.00
-7, -65.51, 0.00
-6, -22.20, 0.00
-5, -109.70, 0.00
-4, 27.45, 0.00
-3, -144.17, 0.00
-2, 74.32, 0.00
-1, -172.82, 0.00
0, 108.85, 0.00
-29, -200.90, 0.00
-28, 129.04, 0.00
-27, -214.60, 0.00
-26, 142.85, 0.00
-25, -216.66, 0.00
-24, 148.15, 0.00
-23, -198.57, 0.00
-22, 136.73, 0.00
-21, -181.32, 0.00
-20, 112.14, 0.00
-19, -157.45, 0.00
-18, 64.46, 0.00
-17, -112.30, 0.00
-16, 33.46, 0.00
-15, -71.03, 0.00
-14, -18.28, 0.00
-13, -20.41, 0.00
-12, -54.99, 0.00
-11, -104.16, 0.00
-10, 70.56, 0.00
-9, -144.08, 0.00
-8, 104.58, 0.00
-7, -172.85, 0.00
-6, 135.72, 0.00
-5, -196.32, 0.00
-4, 149.15, 0.00
-3, -207.69, 0.00
-2, 152.06, 0.00
-1, -200.29, 0.00
0, 151.72, 0.00
-29, -190.57, 0.00
-28, 123.92, 0.00
-27, -166.86, 0.00
-26, 98.64, 0.00
-25, -126.11, 0.00
-24, 52.21, 0.00
-23, -93.54, 0.00
-22, 7.93, 0.00
-21, -51.99, 0.00
-20, -44.59, 0.00
-19, 0.11, 0.00
-18, -89.23, 0.00
-17, 40.97, 0.00
-16, -134.51, 0.00
-15, 84.58, 0.00
-14, -164.35, 0.00
-13, 114.13, 0.00
-12, -194.35, 0.00
-11, 136.97, 0.00
-10, -210.37, 0.00
-9, 156.42, 0.00
-8, -204.14, 0.00
-7, 155.72, 0.00
-6, -192.98, 0.00
-5, 151.57, 0.00
-4, -161.11, 0.00
-3, 137.26, 0.00
-2, -118.44, 0.00
-1, 117.06, 0.00
0, -68.42, 0.00
-29, 79.39, 0.00
-28, -11.53, 0.00
-27, 47.88, 0.00
-26, 43.47, 0.00
-25, -0.07, 0.00
-24, 94.39, 0.00
-23, -36.30, 0.00
-22, 134.76, 0.00
-21, -80.96, 0.00
-20, 169.72, 0.00
-19, -117.66, 0.00
-18, 196.85, 0.00
-17, -136.50, 0.00
-16, 210.15, 0.00
-15, -150.45, 0.00
-14, 213.86, 0.00
-13, -147.07, 0.00
-12, 205.01, 0.00
-11, -136.10, 0.00
-10, 188.56, 0.00
-9, -106.68, 0.00
-8, 148.39, 0.00
-7, -73.20, 0.00
-6, 119.96, 0.00
-5, -30.11, 0.00
-4, 66.43, 0.00
-3, 12.85, 0.00
-2, 21.57, 0.00
-1, 63.70, 0.00
0, -27.20, 0.00
-29, 104.61, 0.00
-28, -71.28, 0.00
-27, 140.30, 0.00
-26, -111.56, 0.00
-25, 178.30, 0.00
-24, -138.33, 0.00
-23, 194.71, 0.00
-22, -155.01, 0.00
-21, 201.28, 0.00
-20, -162.43, 0.00
-19, 200.18, 0.00
-18, -163.01, 0.00
-17, 173.78, 0.00
-16, -149.60, 0.00
-15, 143.83, 0.00
-14, -123.00, 0.00
-13, 96.67, 0.00
-12, -95.24, 0.00
-11, 46.45, 0.00
-10, -60.93, 0.00
-9, -11.89, 0.00
-8, -15.42, 0.00
-7, -53.60, 0.00
-6, 28.32, 0.00
-5, -108.56, 0.00
-4, 69.38, 0.00
-3, -149.22, 0.00
-2, 107.20, 0.00
-1, -171.80, 0.00
0, 141.55, 0.00
-29, -194.12, 0.00
-28, -204.72, 0.00
-27, 157.51, 0.00
-26, -209.57, 0.00
-25, 150.40, 0.00
-24, -193.03, 0.00
-23, 128.41, 0.00
-22, -169.34, 0.00
-21, 94.97, 0.00
-20, 48.21, 0.00
-19, -97.34, 0.00
-18, 11.00, 0.00
-17, -47.97, 0.00
-16, -49.58, 0.00
-15, -4.76, 0.00
-14, -95.33, 0.00
-13, 34.98, 0.00
-12, -142.02, 0.00
-11, 71.75, 0.00
-10, -182.75, 0.00
-9, 100.72, 0.00
-8, -214.38, 0.00
-7, 128.21, 0.00
-6, -228.26, 0.00
-5, 132.68, 0.00
-4, -233.87, 0.00
-3, 137.55, 0.00
-2, -225.71, 0.00
-1, 123.76, 0.00
0, -200.83, 0.00
-29, 98.39, 0.00
-28, -176.22, 0.00
-27, 49.78, 0.00
-26, -139.21, 0.00
-25, 17.28, 0.00
-24, -96.74, 0.00
-23, -59.39, 0.00
-22, -74.99, 0.00
-21, -124.45, 0.00
-20, -51.50, 0.00
-19, -210.04, 0.00
-18, -50.13, 0.00
-17, -284.25, 0.00
-16, -31.07, 0.00
-15, -328.75, 0.00
-14, -17.68, 0.00
-13, -377.50, 0.00
-12, -21.32, 0.00
-11, -376.14, 0.00
-10, 13.23, 0.00
-9, 4.25, 0.00
-8, -305.24, 0.00
-7, 64.80, 0.00
-6, -226.96, 0.00
-5, 55.12, 0.00
-4, -138.89, 0.00
-3, 88.00, 0.00
-2, -52.62, 0.00
-1, 51.59, 0.00
0, 15.58, 0.00
-29, 44.32, 0.00
-28, 88.80, 0.00
-27, -3.11, 0.00
-26, 138.45, 0.00
-25, -36.05, 0.00
-24, 186.03, 0.00
-23, -66.36, 0.00
-22, 227.74, 0.00
-21, -91.71, 0.00
-20, 249.71, 0.00
-19, -102.37, 0.00
-18, 265.65, 0.00
-17, -106.68, 0.00
-16, 270.19, 0.00
-15, -92.04, 0.00
-14, 253.36, 0.00
-13, -69.63, 0.00
-12, 229.57, 0.00
-11, -36.84, 0.00
-10, 199.98, 0.00
-9, 8.58, 0.00
-8, 158.54, 0.00
-7, 52.01, 0.00
-6, 108.43, 0.00
-5, 102.84, 0.00
-4, 61.29, 0.00
-3, 153.87, 0.00
-2, 16.47, 0.00
-1, 197.14, 0.00
0, -26.33, 0.00
-29, 231.39, 0.00
-28, -57.71, 0.00
-27, 263.37, 0.00
-26, -75.28, 0.00
-25, 282.55, 0.00
-24, -82.54, 0.00
-23, 286.50, 0.00
-22, -87.95, 0.00
-21, 277.77, 0.00
-20, -73.49, 0.00
-19, 245.60, 0.00
-18, -53.00, 0.00
-17, 218.31, 0.00
-16, -20.23, 0.00
-15, 166.63, 0.00
-14, 16.83, 0.00
-13, 124.32, 0.00
-12, 66.12, 0.00
-11, 63.39, 0.00
-10, 103.73, 0.00
-9, 13.34, 0.00
-8, 142.11, 0.00
-7, -40.01, 0.00
-6, 177.76, 0.00
-5, -84.80, 0.00
-4, 198.60, 0.00
-3, -124.90, 0.00
-2, 214.04, 0.00
-1, -151.37, 0.00
0, 209.95, 0.00
-29, -166.45, 0.00
-28, 202.28, 0.00
-27, -158.41, 0.00
-26, 191.29, 0.00
-25, -137.66, 0.00
-24, 160.80, 0.00
-23, -107.51, 0.00
-22, 135.72, 0.00
-21, -53.15, 0.00
-20, 94.70, 0.00
-19, -4.69, 0.00
-18, 59.75, 0.00
-17, 55.16, 0.00
-16, 12.76, 0.00
-15, 112.63, 0.00
-14, -15.38, 0.00
-13, 165.22, 0.00
-12, -55.90, 0.00
-11, 206.33, 0.00
-10, -77.07, 0.00
-9, 248.62, 0.00
-8, -93.39, 0.00
-7, 267.13, 0.00
-6, -103.71, 0.00
-5, 278.53, 0.00
-4, -91.35, 0.00
-3, 270.30, 0.00
-2, -82.70, 0.00
-1, 246.50, 0.00
0, -58.29, 0.00
-29, 210.62, 0.00
-28, -21.23, 0.00
-27, 168.80, 0.00
-26, 10.91, 0.00
-25, 109.46, 0.00
-24, 53.87, 0.00
-23, 60.15, 0.00
-22, 91.44, 0.00
-21, -5.32, 0.00
-20, 132.70, 0.00
-19, 163.64, 0.00
-18, -102.68, 0.00
-17, 184.67, 0.00
-16, -146.96, 0.00
-15, 189.27, 0.00
-14, -169.00, 0.00
-13, 196.81, 0.00
-12, -188.22, 0.00
-11, 184.13, 0.00
-10, -185.39, 0.00
-9, 162.59, 0.00
-8, -166.74, 0.00
-7, 132.68, 0.00
-6, -140.97, 0.00
-5, 89.70, 0.00
-4, -100.76, 0.00
-3, 51.01, 0.00
-2, -54.40, 0.00
-1, -4.09, 0.00
0, -11.29, 0.00
-29, -50.81, 0.00
-28, 44.82, 0.00
-27, -90.57, 0.00
-26, 88.20, 0.00
-25, -140.91, 0.00
-24, 125.28, 0.00
-23, -160.44, 0.00
-22, 164.15, 0.00
-21, -185.07, 0.00
-20, 184.36, 0.00
-19, -181.52, 0.00
-18, 200.94, 0.00
-17, -175.68, 0.00
-16, 199.58, 0.00
-15, -154.27, 0.00
-14, 180.09, 0.00
-13, -117.17, 0.00
-12, 161.63, 0.00
-11, -83.62, 0.00
-10, 109.97, 0.00
-9, -34.78, 0.00
-8, 75.33, 0.00
-7, 12.76, 0.00
-6, 13.57, 0.00
-5, 64.33, 0.00
-4, -23.13, 0.00
-3, 113.30, 0.00
-2, -74.12, 0.00
-1, 154.76, 0.00
0, -106.73, 0.00
-29, 188.63, 0.00
-28, -138.98, 0.00
-27, 210.22, 0.00
-26, -158.74, 0.00
-25, 211.94, 0.00
-24, -174.99, 0.00
-23, 195.80, 0.00
-22, -174.79, 0.00
-21, 176.85, 0.00
-20, -166.39, 0.00
-19, 130.44, 0.00
-18, -144.01, 0.00
-17, 94.32, 0.00
-16, -112.43, 0.00
-15, 31.81, 0.00
-14, -69.13, 0.00
-13, -12.47, 0.00
-12, -17.50, 0.00
-11, -70.45, 0.00
-10, 22.46, 0.00
-9, -116.16, 0.00
-8, 67.84, 0.00
-7, -156.62, 0.00
-6, 108.27, 0.00
-5, -191.11, 0.00
-4, 134.58, 0.00
-3, -214.08, 0.00
-2, 153.74, 0.00
-1, -221.08, 0.00
0, 163.68, 0.00
-29, -209.17, 0.00
-28, 161.18, 0.00
-27, -190.93, 0.00
-26, 148.19, 0.00
-25, -155.08, 0.00
-24, 119.72, 0.00
-23, -117.79, 0.00
-22, 84.38, 0.00
-21, -63.30, 0.00
-20, 47.23, 0.00
-19, -5.30, 0.00
-18, -1.34, 0.00
-17, 44.26, 0.00
-16, -49.40, 0.00
-15, 99.87, 0.00
-14, -78.16, 0.00
-13, 147.45, 0.00
-12, -120.65, 0.00
-11, 183.51, 0.00
-10, -137.35, 0.00
-9, 217.26, 0.00
-8, -152.71, 0.00
-7, 228.66, 0.00
-6, -146.29, 0.00
-5, 247.03, 0.00
-4, -123.74, 0.00
-3, 232.61, 0.00
-2, -94.15, 0.00
-1, 223.07, 0.00
0, -47.54, 0.00
-29, 188.16, 0.00
-28, -1.61, 0.00
-27, 158.76, 0.00
-26, 57.09, 0.00
-25, 113.95, 0.00
-24, 113.79, 0.00
-23, 70.10, 0.00
-22, 163.99, 0.00
-21, 23.76, 0.00
-20, 218.67, 0.00
-19, -12.90, 0.00
-18, 252.26, 0.00
-17, -47.83, 0.00
-16, 283.02, 0.00
-15, -64.10, 0.00
-14, 307.69, 0.00
-13, -76.55, 0.00
-12, 307.38, 0.00
-11, -70.27, 0.00
-10, 305.79, 0.00
-9, -55.01, 0.00
-8, 273.03, 0.00
-7, -24.79, 0.00
-6, 251.99, 0.00
-5, 16.72, 0.00
-4, 211.11, 0.00
-3, 61.94, 0.00
-2, 166.41, 0.00
-1, 111.98, 0.00
0, 116.77, 0.00
-29, 169.09, 0.00
-28, 70.23, 0.00
-27, 212.81, 0.00
-26, 23.18, 0.00
-25, 259.19, 0.00
-24, -10.39, 0.00
-23, 289.77, 0.00
-22, -42.00, 0.00
-21, 310.00, 0.00
-20, -61.87, 0.00
-19, 318.89, 0.00
-18, -62.90, 0.00
-17, 317.77, 0.00
-16, -47.56, 0.00
-15, 313.73, 0.00
-14, -23.47, 0.00
-13, 277.52, 0.00
-12, 4.58, 0.00
-11, 245.20, 0.00
-10, 50.63, 0.00
-9, 189.72, 0.00
-8, 88.02, 0.00
-7, 140.19, 0.00
-6, 137.08, 0.00
-5, 86.39, 0.00
-4, 181.03, 0.00
-3, 31.18, 0.00
-2, 217.06, 0.00
-1, -16.47, 0.00
0, 255.55, 0.00
-29, -53.09, 0.00
-28, 274.81, 0.00
-27, -81.07, 0.00
-26, 288.78, 0.00
-25, -92.25, 0.00
-24, 292.38, 0.00
-23, -91.31, 0.00
-22, 274.14, 0.00
-21, -75.44, 0.00
-20, 267.73, 0.00
-19, -44.37, 0.00
-18, 225.22, 0.00
-17, -7.96, 0.00
-16, 192.78, 0.00
-15, 45.28, 0.00
-14, 138.65, 0.00
-13, 87.82, 0.00
-12, 91.02, 0.00
-11, 140.95, 0.00
-10, 42.69, 0.00
-9, 188.07, 0.00
-8, -5.01, 0.00
-7, 223.83, 0.00
-6, -48.10, 0.00
-5, 261.20, 0.00
-4, -73.81, 0.00
-3, 276.98, 0.00
-2, -94.82, 0.00
-1, 285.74, 0.00
0, -97.88, 0.00
-29, 286.66, 0.00
-28, -91.22, 0.00
-27, 263.19, 0.00
-26, -69.04, 0.00
-25, 247.43, 0.00
-24, -27.56, 0.00
-23, 205.59, 0.00
-22, 12.99, 0.00
-21, 165.20, 0.00
-20, 71.12, 0.00
-19, 124.39, 0.00
-18, 123.47, 0.00
-17, 70.70, 0.00
-16, 172.91, 0.00
-15, 30.17, 0.00
-14, 224.84, 0.00
-13, -13.99, 0.00
-12, 260.40, 0.00
-11, -40.97, 0.00
-10, 295.31, 0.00
-9, -61.04, 0.00
-8, 312.75, 0.00
-7, -76.71, 0.00
-6, 309.01, 0.00
-5, -72.64, 0.00
-4, 305.95, 0.00
-3, -58.74, 0.00
-2, 270.03, 0.00
-1, -32.57, 0.00
0, 245.78, 0.00
-29, 2.97, 0.00
-28, 195.49, 0.00
-27, 51.61, 0.00
-26, 153.11, 0.00
-25, 99.55, 0.00
-24, 97.57, 0.00
-23, 154.47, 0.00
-22, 52.97, 0.00
-21, 200.05, 0.00
-20, 1.77, 0.00
-19, 240.15, 0.00
-18, -38.74, 0.00
-17, 266.54, 0.00
-16, -74.70, 0.00
-15, 279.46, 0.00
-14, -97.57, 0.00
-13, 288.45, 0.00
-12, -107.53, 0.00
-11, 271.10, 0.00
-10, -103.58, 0.00
-9, 256.53, 0.00
-8, -88.80, 0.00
-7, 210.62, 0.00
-6, -64.51, 0.00
-5, 169.07, 0.00
-4, -29.33, 0.00
-3, 112.43, 0.00
-2, 17.59, 0.00
-1, 68.42, 0.00
0, 69.29, 0.00
-29, 15.20, 0.00
-28, 123.38, 0.00
-27, -27.83, 0.00
-26, 169.65, 0.00
-25, -64.46, 0.00
-24, 212.01, 0.00
-23, -110.62, 0.00
-22, 224.64, 0.00
-21, -131.63, 0.00
-20, 240.88, 0.00
-19, -155.23, 0.00
-18, 231.23, 0.00
-17, -156.02, 0.00
-16, 215.72, 0.00
-15, -145.00, 0.00
-14, 195.04, 0.00
-13, -121.77, 0.00
-12, 144.95, 0.00
-11, -83.06, 0.00
-10, 116.79, 0.00
-9, -37.71, 0.00
-8, 51.21, 0.00
-7, 5.92, 0.00
-6, 5.34, 0.00
-5, 59.14, 0.00
-4, -52.55, 0.00
-3, 100.94, 0.00
-2, -94.55, 0.00
-1, 145.71, 0.00
0, -130.04, 0.00
-29, 183.66, 0.00
-28, -155.84, 0.00
-27, 208.79, 0.00
-26, -167.10, 0.00
-25, 223.79, 0.00
-24, -168.44, 0.00
-23, 222.13, 0.00
-22, -158.61, 0.00
-21, 197.84, 0.00
-20, -136.66, 0.00
-19, 172.94, 0.00
-18, -111.76, 0.00
-17, 116.45, 0.00
-16, -72.44, 0.00
-15, 79.73, 0.00
-14, -21.55, 0.00
-13, 16.94, 0.00
-12, 25.84, 0.00
-11, -29.66, 0.00
-10, 72.13, 0.00
-9, -85.92, 0.00
-8, 112.72, 0.00
-7, -130.69, 0.00
-6, 146.18, 0.00
-5, -168.71, 0.00
-4, 173.32, 0.00
-3, -196.47, 0.00
-2, 180.56, 0.00
-1, -213.57, 0.00
0, 174.54, 0.00
-29, -214.49, 0.00
-28, 160.22, 0.00
-27, -205.64, 0.00
-26, 127.72, 0.00
-25, -183.46, 0.00
-24, 91.22, 0.00
-23, -149.69, 0.00
-22, 36.90, 0.00
-21, -107.74, 0.00
-20, -14.19, 0.00
-19, -62.09, 0.00
-18, -76.44, 0.00
-17, -15.49, 0.00
-16, -124.39, 0.00
-15, 31.05, 0.00
-14, -168.76, 0.00
-13, 78.75, 0.00
-12, -203.24, 0.00
-11, 111.38, 0.00
-10, -233.98, 0.00
-9, 132.59, 0.00
-8, -245.87, 0.00
-7, 149.76, 0.00
-6, -247.55, 0.00
-5, 134.80, 0.00
-4, -243.30, 0.00
-3, 125.44, 0.00
-2, -202.89, 0.00
-1, -143.30, 0.00
0, 113.70, 0.00
-29, -53.47, 0.00
-28, 122.33, 0.00
-27, 67.26, 0.00
-26, 139.72, 0.00
-25, 178.01, 0.00
-24, 146.81, 0.00
-23, 292.90, 0.00
-22, 166.90, 0.00
-21, 396.10, 0.00
-20, 173.87, 0.00
-19, 486.15, 0.00
-18, 197.88, 0.00
-17, 568.56, 0.00
-16, 222.24, 0.00
-15, 621.87, 0.00
-14, 253.92, 0.00
-13, 675.07, 0.00
-12, 303.13, 0.00
-11, 690.96, 0.00
-10, 346.61, 0.00
-9, 700.10, 0.00
-8, 402.98, 0.00
-7, 680.43, 0.00
-6, 453.18, 0.00
-5, 657.01, 0.00
-4, 515.92, 0.00
-3, 611.81, 0.00
-2, 578.62, 0.00
-1, 568.58, 0.00
0, 629.94, 0.00
-29, 520.46, 0.00
-28, 688.32, 0.00
-27, 486.31, 0.00
-26, 731.21, 0.00
-25, 444.33, 0.00
-24, 765.10, 0.00
-23, 424.66, 0.00
-22, 798.07, 0.00
-21, 415.21, 0.00
-20, 806.96, 0.00
-19, 416.88, 0.00
-18, 812.26, 0.00
-17, 438.30, 0.00
-16, 793.91, 0.00
-15, 458.79, 0.00
-14, 769.26, 0.00
-13, 499.83, 0.00
-12, 730.16, 0.00
-11, 542.81, 0.00
-10, 686.20, 0.00
-9, 592.99, 0.00
-8, 629.54, 0.00
-7, 639.71, 0.00
-6, 575.91, 0.00
-5, 684.75, 0.00
-4, 513.53, 0.00
-3, 717.04, 0.00
-2, 461.56, 0.00
-1, 738.97, 0.00
0, 414.62, 0.00
-29, 753.32, 0.00
-28, 377.52, 0.00
-27, 749.01, 0.00
-26, 346.81, 0.00
-25, 732.49, 0.00
-24, 330.90, 0.00
-23, 700.39, 0.00
-22, 325.93, 0.00
-21, 650.50, 0.00
-20, 337.62, 0.00
-19, 595.29, 0.00
-18, 347.95, 0.00
-17, 516.71, 0.00
-16, 368.98, 0.00
-15, 454.79, 0.00
-14, 399.34, 0.00
-13, 367.48, 0.00
-12, 422.60, 0.00
-11, 298.26, 0.00
-10, 448.22, 0.00
-9, 220.12, 0.00
-8, 457.72, 0.00
-7, 154.18, 0.00
-6, 460.54, 0.00
-5, 101.63, 0.00
-4, 455.98, 0.00
-3, 58.18, 0.00
-2, 441.49, 0.00
-1, 35.41, 0.00
0, 414.36, 0.00
-29, 23.09, 0.00
-28, 377.43, 0.00
-27, 29.24, 0.00
-26, 319.27, 0.00
-25, 45.17, 0.00
-24, 269.11, 0.00
-23, 71.84, 0.00
-22, 194.73, 0.00
-21, 104.07, 0.00
-20, 137.55, 0.00
-19, 142.18, 0.00
-18, 67.06, 0.00
-17, 179.93, 0.00
-16, 11.42, 0.00
-15, 217.66, 0.00
-14, -41.98, 0.00
-13, 241.56, 0.00
-12, -85.43, 0.00
-11, 262.77, 0.00
-10, -107.89, 0.00
-9, 269.87, 0.00
-8, -125.89, 0.00
-7, 269.49, 0.00
-6, -123.25, 0.00
-5, 246.29, 0.00
-4, -113.03, 0.00
-3, 221.84, 0.00
-2, -82.86, 0.00
-1, 179.71, 0.00
0, -52.06, 0.00
-29, 133.62, 0.00
-28, -8.43, 0.00
-27, 71.41, 0.00
-26, 34.67, 0.00
-25, 14.15, 0.00
-24, 73.34, 0.00
-23, -51.74, 0.00
-22, 116.30, 0.00
-21, -95.20, 0.00
-20, 151.16, 0.00
-19, -138.89, 0.00
-18, 182.01, 0.00
-17, -166.05, 0.00
-16, 207.33, 0.00
-15, -177.92, 0.00
-14, 215.52, 0.00
-13, -177.07, 0.00
-12, 218.82, 0.00
-11, -155.43, 0.00
-10, 196.94, 0.00
-9, -135.59, 0.00
-8, 177.90, 0.00
-7, -89.52, 0.00
-6, 139.63, 0.00
-5, -45.22, 0.00
-4, 93.12, 0.00
-3, 5.50, 0.00
-2, 37.77, 0.00
-1, 58.65, 0.00
0, -8.83, 0.00
-29, 103.09, 0.00
-28, -66.18, 0.00
-27, 147.14, 0.00
-26, -103.78, 0.00
-25, 176.98, 0.00
-24, -150.40, 0.00
-23, 194.71, 0.00
-22, -181.14, 0.00
-21, 203.13, 0.00
-20, -197.81, 0.00
-19, 192.63, 0.00
-18, -201.61, 0.00
-17, 176.76, 0.00
-16, -188.31, 0.00
-15, 139.85, 0.00
-14, -162.43, 0.00
-13, 105.21, 0.00
-12, -124.72, 0.00
-11, 56.44, 0.00
-10, -80.22, 0.00
-9, 3.73, 0.00
-8, -36.03, 0.00
-7, -55.34, 0.00
-6, 8.65, 0.00
-5, -113.17, 0.00
-4, 48.03, 0.00
-3, -164.55, 0.00
-2, 88.83, 0.00
-1, -209.91, 0.00
0, 108.38, 0.00
-29, -245.13, 0.00
-28, 123.52, 0.00
-27, -264.56, 0.00
-26, 127.94, 0.00
-25, -273.52, 0.00
-24, 111.22, 0.00
-23, -266.79, 0.00
-22, 99.00, 0.00
-21, -245.06, 0.00
-20, 52.97, 0.00
-19, -214.82, 0.00
-18, 17.75, 0.00
-17, -164.78, 0.00
-16, -36.68, 0.00
-15, -121.88, 0.00
-14, -86.46, 0.00
-13, -70.52, 0.00
-12, -140.77, 0.00
-11, -23.85, 0.00
-10, -193.81, 0.00
-9, 15.07, 0.00
-8, -241.64, 0.00
-7, 54.54, 0.00
-6, -272.22, 0.00
-5, 73.67, 0.00
-4, -299.63, 0.00
-3, 83.08, 0.00
-2, -315.92, 0.00
-1, 82.03, 0.00
0, -312.97, 0.00
-29, 63.03, 0.00
-28, -293.99, 0.00
-27, 42.40, 0.00
-26, -270.66, 0.00
-25, -6.73, 0.00
-24, -235.14, 0.00
-23, -51.50, 0.00
-22, -192.02, 0.00
-21, -115.20, 0.00
-20, -147.95, 0.00
-19, -168.55, 0.00
-18, -99.11, 0.00
-17, -222.02, 0.00
-16, -51.72, 0.00
-15, -264.73, 0.00
-14, -6.57, 0.00
-13, -295.40, 0.00
-12, 32.23, 0.00
-11, -324.44, 0.00
-10, 51.30, 0.00
-9, -334.29, 0.00
-8, 63.93, 0.00
-7, -332.55, 0.00
-6, 61.98, 0.00
-5, -319.52, 0.00
-4, 36.48, 0.00
-3, -298.15, 0.00
-2, 12.32, 0.00
-1, -263.66, 0.00
0, -41.35, 0.00
-29, -222.78, 0.00
-28, -85.72, 0.00
-27, -172.94, 0.00
-26, -146.76, 0.00
-25, -126.18, 0.00
-24, -193.30, 0.00
-23, -68.33, 0.00
-22, -236.24, 0.00
-21, -18.46, 0.00
-20, -274.70, 0.00
-19, 21.61, 0.00
-18, -301.28, 0.00
-17, 60.19, 0.00
-16, -320.46, 0.00
-15, 75.41, 0.00
-14, -316.17, 0.00
-13, 91.26, 0.00
-12, -300.41, 0.00
-11, 84.22, 0.00
-10, -280.92, 0.00
-9, 57.53, 0.00
-8, -250.59, 0.00
-7, 22.82, 0.00
-6, -217.62, 0.00
-5, -40.10, 0.00
-4, -174.21, 0.00
-3, -90.57, 0.00
-2, -130.36, 0.00
-1, -163.91, 0.00
0, -93.74, 0.00
-29, -216.90, 0.00
-28, -56.08, 0.00
-27, -283.31, 0.00
-26, -29.12, 0.00
-25, -333.11, 0.00
-24, -11.96, 0.00
-23, -380.38, 0.00
-22, -5.70, 0.00
-21, -407.20, 0.00
-20, -10.57, 0.00
-19, -424.71, 0.00
-18, -38.24, 0.00
-17, -429.27, 0.00
-16, -74.97, 0.00
-15, -430.94, 0.00
-14, -138.83, 0.00
-13, -417.53, 0.00
-12, -197.59, 0.00
-11, -402.76, 0.00
-10, -288.83, 0.00
-9, -384.11, 0.00
-8, -354.66, 0.00
-7, -450.12, 0.00
-6, -336.53, 0.00
-5, -516.15, 0.00
-4, -305.08, 0.00
-3, -574.26, 0.00
-2, -279.60, 0.00
-1, -617.78, 0.00
0, -260.00, 0.00
-29, -644.20, 0.00
-28, -255.57, 0.00
-27, -656.94, 0.00
-26, -256.37, 0.00
-25, -660.78, 0.00
-24, -283.38, 0.00
-23, -647.37, 0.00
-22, -307.90, 0.00
-21, -617.96, 0.00
-20, -357.18, 0.00
-19, -587.92, 0.00
-18, -409.17, 0.00
-17, -468.29, 0.00
-16, -496.72, 0.00
-15, -524.86, 0.00
-14, -456.44, 0.00
-13, -588.92, 0.00
-12, -422.72, 0.00
-11, -663.15, 0.00
-10, -415.23, 0.00
-9, -726.28, 0.00
-8, -403.63, 0.00
-7, -803.77, 0.00
-6, -456.62, 0.00
-5, -866.20, 0.00
-4, -502.89, 0.00
-3, -1107.86, 0.00
-2, -807.50, 0.00
-1, -1142.17, 0.00
0, -694.18, 0.00
-29, -1065.84, 0.00
-28, -723.17, 0.00
-27, -1065.78, 0.00
-26, 46.92, 0.00
-25, 13595.27, 0.00
-24, 30659.01, 0.00
-23, 36733.77, 0.00
-22, 43658.56, 0.00
-21, 44424.22, 0.00
-20, 41368.89, 0.00
-19, 42267.90, 0.00
-18, 42733.16, 0.00
-17, 39948.51, 0.00
-16, 36900.87, 0.00
-15, 36235.08, 0.00
-14, 36308.80, 0.00
-13, 34835.88, 0.00
-12, 32505.98, 0.00
-11, 31196.24, 0.00
-10, 30812.26, 0.00
-9, 29912.49, 0.00
-8, 28203.67, 0.00
-7, 26041.59, 0.00
-6, 25339.77, 0.00
-5, 24077.90, 0.00
-4, 22721.48, 0.00
-3, 21834.77, 0.00
-2, 21170.16, 0.00
-1, 20195.31, 0.00
0, 19010.09, 0.00
-29, 18071.94, 0.00
-28, 17393.28, 0.00
-27, 16590.58, 0.00
-26, 15581.02, 0.00
-25, 14669.54, 0.00
-24, 13978.73, 0.00
-23, 13278.05, 0.00
-22, 12417.96, 0.00
-21, 11573.93, 0.00
-20, 10890.71, 0.00
-19, 10254.31, 0.00
-18, 9512.92, 0.00
-17, 8752.36, 0.00
-16, 8096.47, 0.00
-15, 7506.27, 0.00
-14, 6858.30, 0.00
-13, 6180.23, 0.00
-12, 5565.14, 0.00
-11, 5014.73, 0.00
-10, 4439.46, 0.00
-9, 3836.18, 0.00
-8, 3270.46, 0.00
-7, 2757.69, 0.00
-6, 2243.06, 0.00
-5, 1706.82, 0.00
-4, 1193.61, 0.00
-3, 718.90, 0.00
-2, 255.50, 0.00
-1, -222.42, 0.00
0, -684.92, 0.00
-29, -1121.30, 0.00
-28, -1538.47, 0.00
-27, -1965.10, 0.00
-26, -2378.72, 0.00
-25, -2776.18, 0.00
-24, -3152.76, 0.00
-23, -3533.45, 0.00
-22, -3903.60, 0.00
-21, -4262.81, 0.00
-20, -4602.80, 0.00
-19, -5273.09, 0.00
-18, -5594.84, 0.00
-17, -5901.73, 0.00
-16, -6203.10, 0.00
-15, -6497.99, 0.00
-14, -6783.13, 0.00
-13, -7058.39, 0.00
-12, -7324.71, 0.00
-11, -7587.03, 0.00
-10, -7837.53, 0.00
-9, -8082.99, 0.00
-8, -8316.95, 0.00
-7, -8549.14, 0.00
-6, -8769.19, 0.00
-5, -8986.61, 0.00
-4, -9191.15, 0.00
-3, -9396.54, 0.00
-2, -9589.57, 0.00
-1, -9782.08, 0.00
0, -9961.25, 0.00
-29, -10140.36, 0.00
-28, -10307.95, 0.00
-27, -10474.83, 0.00
-26, -10630.64, 0.00
-25, -10784.89, 0.00
-24, -10930.90, 0.00
-23, -11073.92, 0.00
-22, -11209.51, 0.00
-21, -11340.65, 0.00
-20, -11466.67, 0.00
-19, -11587.08, 0.00
-18, -11703.68, 0.00
-17, -11813.57, 0.00
-16, -11922.17, 0.00
-15, -12021.73, 0.00
-14, -12121.13, 0.00
-13, -12211.34, 0.00
-12, -12302.60, 0.00
-11, -12383.60, 0.00
-10, -12467.13, 0.00
-9, -12539.89, 0.00
-8, -12616.13, 0.00
-7, -12681.35, 0.00
-6, -12749.17, 0.00
-5, -12806.92, 0.00
-4, -12866.91, 0.00
-3, -12918.19, 0.00
-2, -12971.05, 0.00
-1, -13016.36, 0.00
0, -13061.37, 0.00
-29, -13100.31, 0.00
-28, -13138.22, 0.00
-27, -13172.35, 0.00
-26, -13204.13, 0.00
-25, -13233.17, 0.00
-24, -13257.49, 0.00
-23, -13281.61, 0.00
-22, -13299.87, 0.00
-21, -13319.87, 0.00
-20, -13332.57, 0.00
-19, -13348.17, 0.00
-18, -13355.05, 0.00
-17, -13365.20, 0.00
-16, -13367.17, 0.00
-15, -13373.36, 0.00
-14, -13370.28, 0.00
-13, -13371.82, 0.00
-12, -13364.29, 0.00
-11, -13360.69, 0.00
-10, -13349.51, 0.00
-9, -13342.16, 0.00
-8, -13328.17, 0.00
-7, -13315.87, 0.00
-6, -13298.91, 0.00
-5, -13282.32, 0.00
-4, -13262.94, 0.00
-3, -13243.34, 0.00
-2, -13221.61, 0.00
-1, -13197.03, 0.00
0, -13172.82, 0.00
-29, -13143.50, 0.00
-28, -13117.34, 0.00
-27, -13085.49, 0.00
-26, -13056.90, 0.00
-25, -13021.32, 0.00
-24, -12990.52, 0.00
-23, -12951.72, 0.00
-22, -12918.88, 0.00
-21, -12877.96, 0.00
-20, -12843.04, 0.00
-19, -12800.64, 0.00
-18, -12762.82, 0.00
-17, -12717.63, 0.00
-16, -12677.39, 0.00
-15, -12630.03, 0.00
-14, -12586.78, 0.00
-13, -12539.19, 0.00
-12, -12493.64, 0.00
-11, -12444.44, 0.00
-10, -12396.59, 0.00
-9, -12347.10, 0.00
-8, -12296.72, 0.00
-7, -12246.72, 0.00
-6, -12194.57, 0.00
-5, -12144.01, 0.00
-4, -12088.72, 0.00
-3, -12037.46, 0.00
-2, -11979.80, 0.00
-1, -11927.34, 0.00
0, -11868.69, 0.00
-29, -11815.87, 0.00
-28, -11756.14, 0.00
-27, -11702.86, 0.00
-26, -11641.79, 0.00
-25, -11587.12, 0.00
-24, -11525.65, 0.00
-23, -11469.66, 0.00
-22, -11407.05, 0.00
-21, -11350.15, 0.00
-20, -11288.30, 0.00
-19, -11229.81, 0.00
-18, -11167.33, 0.00
-17, -11107.65, 0.00
-16, -11046.19, 0.00
-15, -10984.83, 0.00
-14, -10923.74, 0.00
-13, -10860.91, 0.00
-12, -10735.45, 0.00
-11, -10674.75, 0.00
-10, -10609.52, 0.00
-9, -10548.68, 0.00
-8, -10482.16, 0.00
-7, -10421.63, 0.00
-6, -10354.78, 0.00
-5, -10294.68, 0.00
-4, -10227.26, 0.00
-3, -10166.11, 0.00
-2, -10098.92, 0.00
-1, -10038.08, 0.00
0, -9970.17, 0.00
-29, -9909.51, 0.00
-28, -9842.19, 0.00
-27, -9779.89, 0.00
-26, -9714.74, 0.00
-25, -9652.02, 0.00
-24, -9587.09, 0.00
-23, -9524.17, 0.00
-22, -9460.06, 0.00
-21, -9396.20, 0.00
-20, -9269.04, 0.00
-19, -9206.97, 0.00
-18, -9141.01, 0.00
-17, -9080.06, 0.00
-16, -9013.63, 0.00
-15, -8953.30, 0.00
-14, -8886.70, 0.00
-13, -8826.99, 0.00
-12, -8759.94, 0.00
-11, -8699.95, 0.00
-10, -8633.14, 0.00
-9, -8573.03, 0.00
-8, -8506.69, 0.00
-7, -8447.42, 0.00
-6, -8382.22, 0.00
-5, -8321.98, 0.00
-4, -8257.49, 0.00
-3, -8197.28, 0.00
-2, -8133.93, 0.00
-1, -8074.10, 0.00
0, -8012.74, 0.00
-29, -7951.34, 0.00
-28, -7890.41, 0.00
-27, -7828.92, 0.00
-26, -7769.33, 0.00
-25, -7707.42, 0.00
-24, -7649.64, 0.00
-23, -7588.19, 0.00
-22, -7531.62, 0.00
-21, -7468.79, 0.00
-20, -7413.18, 0.00
-19, -7350.64, 0.00
-18, -7294.67, 0.00
-17, -7232.67, 0.00
-16, -7177.75, 0.00
-15, -7116.24, 0.00
-14, -7061.76, 0.00
-13, -7001.64, 0.00
-12, -6947.68, 0.00
-11, -6887.62, 0.00
-10, -6833.06, 0.00
-9, -6774.95, 0.00
-8, -6720.63, 0.00
-7, -6663.86, 0.00
-6, -6609.07, 0.00
-5, -6553.64, 0.00
-4, -6498.10, 0.00
-3, -6444.21, 0.00
-2, -6389.11, 0.00
-1, -6336.50, 0.00
0, -6280.57, 0.00
-29, -6229.39, 0.00
-28, -6173.08, 0.00
-27, -6123.44, 0.00
-26, -6067.89, 0.00
-25, -6019.37, 0.00
-24, -5964.27, 0.00
-23, -5915.99, 0.00
-22, -5861.10, 0.00
-21, -5813.31, 0.00
-20, -5758.99, 0.00
-19, -5711.61, 0.00
-18, -5658.90, 0.00
-17, -5611.18, 0.00
-16, -5559.50, 0.00
-15, -5511.29, 0.00
-14, -5460.51, 0.00
-13, -5412.68, 0.00
-12, -5363.90, 0.00
-11, -5315.76, 0.00
-10, -5268.48, 0.00
-9, -5220.85, 0.00
-8, -5175.10, 0.00
-7, -5126.82, 0.00
-6, -5082.54, 0.00
-5, -5033.28, 0.00
-4, -4989.62, 0.00
-3, -4899.21, 0.00
-2, -4850.84, 0.00
-1, -4809.56, 0.00
0, -4760.88, 0.00
-29, -4720.02, 0.00
-28, -4672.23, 0.00
-27, -4631.53, 0.00
-26, -4584.99, 0.00
-25, -4544.58, 0.00
-24, -4498.98, 0.00
-23, -4458.97, 0.00
-22, -4415.03, 0.00
-21, -4373.90, 0.00
-20, -4331.03, 0.00
-19, -4290.42, 0.00
-18, -4249.31, 0.00
-17, -4208.34, 0.00
-16, -4168.78, 0.00
-15, -4126.76, 0.00
-14, -4088.51, 0.00
-13, -4047.21, 0.00
-12, -4010.37, 0.00
-11, -3967.90, 0.00
-10, -3931.56, 0.00
-9, -3889.49, 0.00
-8, -3854.20, 0.00
-7, -3813.18, 0.00
-6, -3779.28, 0.00
-5, -3738.35, 0.00
-4, -3704.98, 0.00
-3, -3665.26, 0.00
-2, -3632.09, 0.00
-1, -3592.60, 0.00
0, -3559.47, 0.00
-29, -3521.11, 0.00
-28, -3487.34, 0.00
-27, -3451.40, 0.00
-26, -3417.34, 0.00
-25, -3381.98, 0.00
-24, -3346.70, 0.00
-23, -3312.44, 0.00
-22, -3276.97, 0.00
-21, -3244.82, 0.00
-20, -3209.87, 0.00
-19, -3178.75, 0.00
-18, -3143.28, 0.00
-17, -3113.28, 0.00
-16, -3078.26, 0.00
-15, -3049.52, 0.00
-14, -3014.22, 0.00
-13, -2985.83, 0.00
-12, -2950.99, 0.00
-11, -2923.88, 0.00
-10, -2889.50, 0.00
-9, -2861.87, 0.00
-8, -2828.41, 0.00
-7, -2801.43, 0.00
-6, -2769.38, 0.00
-5, -2742.42, 0.00
-4, -2711.74, 0.00
-3, -2683.57, 0.00
-2, -2653.76, 0.00
-1, -2626.53, 0.00
0, -2598.30, 0.00
-29, -2570.00, 0.00
-28, -2543.00, 0.00
-27, -2514.30, 0.00
-26, -2488.31, 0.00
-25, -2459.03, 0.00
-24, -2434.89, 0.00
-23, -2404.42, 0.00
-22, -2380.35, 0.00
-21, -2350.71, 0.00
-20, -2327.67, 0.00
-19, -2298.79, 0.00
-18, -2277.73, 0.00
-17, -2248.43, 0.00
-16, -2226.17, 0.00
-15, -2197.78, 0.00
-14, -2175.65, 0.00
-13, -2148.49, 0.00
-12, -2127.26, 0.00
-11, -2100.73, 0.00
-10, -2078.20, 0.00
-9, -2052.61, 0.00
-8, -2030.12, 0.00
-7, -2006.56, 0.00
-6, -1983.83, 0.00
-5, -1961.61, 0.00
-4, -1937.85, 0.00
-3, -1916.15, 0.00
-2, -1892.03, 0.00
-1, -1872.00, 0.00
0, -1847.66, 0.00
-29, -1804.77, 0.00
-28, -1786.84, 0.00
-27, -1762.14, 0.00
-26, -1744.87, 0.00
-25, -1720.59, 0.00
-24, -1703.09, 0.00
-23, -1679.55, 0.00
-22, -1663.24, 0.00
-21, -1641.09, 0.00
-20, -1625.04, 0.00
-19, -1603.67, 0.00
-18, -1586.24, 0.00
-17, -1564.38, 0.00
-16, -1546.43, 0.00
-15, -1525.66, 0.00
-14, -1488.65, 0.00
-13, -1469.83, 0.00
-12, -1452.86, 0.00
-11, -1434.11, 0.00
-10, -1417.79, 0.00
-9, -1397.86, 0.00
-8, -1382.70, 0.00
-7, -1363.03, 0.00
-6, -1349.73, 0.00
-5, -1316.18, 0.00
-4, -1295.42, 0.00
-3, -1281.54, 0.00
-2, -1261.69, 0.00
-1, -1248.50, 0.00
0, -1229.46, 0.00
-29, -1216.78, 0.00
-28, -1197.74, 0.00
-27, -1184.55, 0.00
-26, -1166.90, 0.00
-25, -1152.86, 0.00
-24, -1136.34, 0.00
-23, -1122.66, 0.00
-22, -1107.10, 0.00
-21, -1091.97, 0.00
-20, -1077.71, 0.00
-19, -1062.76, 0.00
-18, -1050.20, 0.00
-17, -1034.17, 0.00
-16, -1022.68, 0.00
-15, -1005.92, 0.00
-14, -994.81, 0.00
-13, -978.07, 0.00
-12, -967.70, 0.00
-11, -951.38, 0.00
-10, -941.34, 0.00
-9, -924.87, 0.00
-8, -915.46, 0.00
-7, -898.43, 0.00
-6, -872.32, 0.00
-5, -862.75, 0.00
-4, -847.78, 0.00
-3, -837.81, 0.00
-2, -823.75, 0.00
-1, -813.16, 0.00
0, -799.66, 0.00
-29, -787.61, 0.00
-28, -775.58, 0.00
-27, -763.54, 0.00
-26, -752.76, 0.00
-25, -740.18, 0.00
-24, -730.07, 0.00
-23, -716.37, 0.00
-22, -665.52, 0.00
-21, -579.51, 0.00
-20, -430.79, 0.00
-19, -432.22, 0.00
-18, -447.26, 0.00
-17, -471.96, 0.00
-16, -509.55, 0.00
-15, -552.85, 0.00
-14, -573.50, 0.00
-13, -599.16, 0.00
-12, -628.80, 0.00
-11, -664.58, 0.00
-10, -689.35, 0.00
-9, -715.19, 0.00
-8, -741.27, 0.00
-7, -770.17, 0.00
-6, -795.07, 0.00
-5, -820.78, 0.00
-4, -849.28, 0.00
-3, -876.26, 0.00
-2, -906.41, 0.00
-1, -937.10, 0.00
0, -977.69, 0.00
-29, -1020.22, 0.00
-28, -1071.97, 0.00
-27, -1114.14, 0.00
-26, -1146.38, 0.00
-25, -1132.32, 0.00
-24, -1007.06, 0.00
-23, -800.37, 0.00
-22, -540.91, 0.00
-21, -256.96, 0.00
-20, -10.80, 0.00
-19, 208.50, 0.00
-18, 436.31, 0.00
-17, 673.48, 0.00
-16, 896.53, 0.00
-15, 1107.01, 0.00
-14, 1312.58, 0.00
-13, 1517.19, 0.00
-12, 1718.94, 0.00
-11, 1913.17, 0.00
-10, 2099.43, 0.00
-9, 2281.98, 0.00
-8, 2641.93, 0.00
-7, 2810.91, 0.00
-6, 2972.16, 0.00
-5, 3134.50, 0.00
-4, 3289.91, 0.00
-3, 3444.27, 0.00
-2, 3587.57, 0.00
-1, 3730.28, 0.00
0, 3866.05, 0.00
-29, 4003.58, 0.00
-28, 4134.47, 0.00
-27, 4260.73, 0.00
-26, 4383.69, 0.00
-25, 4505.53, 0.00
-24, 4619.95, 0.00
-23, 4731.84, 0.00
-22, 4839.58, 0.00
-21, 4943.89, 0.00
-20, 5044.83, 0.00
-19, 5142.93, 0.00
-18, 5239.07, 0.00
-17, 5332.88, 0.00
-16, 5424.10, 0.00
-15, 5509.08, 0.00
-14, 5590.93, 0.00
-13, 5669.47, 0.00
-12, 5747.46, 0.00
-11, 5818.90, 0.00
-10, 5889.68, 0.00
-9, 5960.83, 0.00
-8, 6029.34, 0.00
-7, 6094.94, 0.00
-6, 6157.41, 0.00
-5, 6213.36, 0.00
-4, 6320.85, 0.00
-3, 6372.66, 0.00
-2, 6420.27, 0.00
-1, 6470.56, 0.00
0, 6513.77, 0.00
-29, 6557.58, 0.00
-28, 6599.51, 0.00
-27, 6638.31, 0.00
-26, 6675.26, 0.00
-25, 6709.90, 0.00
-24, 6744.06, 0.00
-23, 6773.92, 0.00
-22, 6802.75, 0.00
-21, 6829.06, 0.00
-20, 6855.91, 0.00
-19, 6877.00, 0.00
-18, 6901.50, 0.00
-17, 6920.64, 0.00
-16, 6939.28, 0.00
-15, 6956.87, 0.00
-14, 6975.75, 0.00
-13, 6987.09, 0.00
-12, 6999.67, 0.00
-11, 7011.07, 0.00
-10, 7022.63, 0.00
-9, 7028.68, 0.00
-8, 7038.81, 0.00
-7, 7041.51, 0.00
-6, 7047.28, 0.00
-5, 7048.51, 0.00
-4, 7053.63, 0.00
-3, 7055.01, 0.00
-2, 7054.46, 0.00
-1, 7054.01, 0.00
0, 7050.92, 0.00
-29, 7046.12, 0.00
-28, 7041.27, 0.00
-27, 7037.76, 0.00
-26, 7032.28, 0.00
-25, 7028.59, 0.00
-24, 7020.93, 0.00
-23, 7014.02, 0.00
-22, 7003.87, 0.00
-21, 6997.70, 0.00
-20, 6984.09, 0.00
-19, 6973.88, 0.00
-18, 6956.00, 0.00
-17, 6944.62, 0.00
-16, 6928.44, 0.00
-15, 6915.92, 0.00
-14, 6899.33, 0.00
-13, 6881.94, 0.00
-12, 6862.59, 0.00
-11, 6845.27, 0.00
-10, 6826.96, 0.00
-9, 6808.92, 0.00
-8, 6788.13, 0.00
-7, 6767.82, 0.00
-6, 6748.21, 0.00
-5, 6725.13, 0.00
-4, 6702.73, 0.00
-3, 6679.55, 0.00
-2, 6660.33, 0.00
-1, 6635.18, 0.00
0, 6614.33, 0.00
-29, 6587.44, 0.00
-28, 6562.94, 0.00
-27, 6536.28, 0.00
-26, 6512.14, 0.00
-25, 6486.83, 0.00
-24, 6462.18, 0.00
-23, 6434.53, 0.00
-22, 6409.81, 0.00
-21, 6381.13, 0.00
-20, 6354.44, 0.00
-19, 6326.55, 0.00
-18, 6297.33, 0.00
-17, 6269.48, 0.00
-16, 6240.87, 0.00
-15, 6210.41, 0.00
-14, 6181.46, 0.00
-13, 6151.60, 0.00
-12, 6118.97, 0.00
-11, 6089.33, 0.00
-10, 6060.25, 0.00
-9, 6029.49, 0.00
-8, 5997.96, 0.00
-7, 5968.90, 0.00
-6, 5937.61, 0.00
-5, 5910.34, 0.00
-4, 5881.48, 0.00
-3, 5852.09, 0.00
-2, 5818.07, 0.00
-1, 5785.17, 0.00
0, 5751.80, 0.00
-29, 5721.78, 0.00
-28, 5688.36, 0.00
-27, 5658.63, 0.00
-26, 5624.93, 0.00
-25, 5591.78, 0.00
-24, 5558.21, 0.00
-23, 5527.00, 0.00
-22, 5493.03, 0.00
-21, 5462.56, 0.00
-20, 5431.74, 0.00
-19, 5399.91, 0.00
-18, 5368.28, 0.00
-17, 5334.76, 0.00
-16, 5301.79, 0.00
-15, 5267.12, 0.00
-14, 5234.00, 0.00
-13, 5199.62, 0.00
-12, 5167.95, 0.00
-11, 5135.47, 0.00
-10, 5105.88, 0.00
-9, 5071.27, 0.00
-8, 5039.65, 0.00
-7, 5004.35, 0.00
-6, 4970.98, 0.00
-5, 4939.27, 0.00
-4, 4908.73, 0.00
-3, 4875.90, 0.00
-2, 4845.63, 0.00
-1, 4813.45, 0.00
0, 4779.81, 0.00
-29, 4746.50, 0.00
-28, 4716.96, 0.00
-27, 4684.48, 0.00
-26, 4655.40, 0.00
-25, 4623.10, 0.00
-24, 4590.31, 0.00
-23, 4557.77, 0.00
-22, 4523.23, 0.00
-21, 4492.77, 0.00
-20, 4460.40, 0.00
-19, 4587.29, -44434.04
-18, 4539.17, -42024.79
-17, 4565.83, -60503.95
-16, 4541.09, -61763.59
-15, 4462.64, -47323.58
-14, 4415.65, -42818.45
-13, 4403.99, -49597.84
-12, 4321.73, -44993.83
-11, 4279.64, -41531.10
-10, 4253.60, -42864.16
-9, 4183.80, -40685.02
-8, 4146.74, -38704.01
-7, 4113.12, -37956.52
-6, 4079.77, -37058.34
-5, 4041.46, -35959.19
-4, 4008.85, -35038.25
-3, 3974.23, -33792.95
-2, 3940.77, -32281.79
-1, 3904.85, -31462.69
0, 3874.79, -31081.42
-29, 3841.08, -29947.20
-28, 3807.98, -28272.32
-27, 3776.13, -27392.91
-26, 3744.54, -27179.67
-25, 3714.77, -26299.44
-24, 3684.06, -24731.67
-23, 3649.53, -23750.67
-22, 3617.54, -23507.17
-21, 3583.74, -22842.18
-20, 3549.23, -21497.50
-19, 3516.60, -20477.08
-18, 3487.34, -20134.49
-17, 3459.92, -19605.03
-16, 3425.07, -18502.12
-15, 3396.70, -17510.78
-14, 3365.61, -17068.30
-13, 3336.20, -16605.06
-12, 3304.62, -15713.01
-11, 3275.63, -14798.42
-10, 3245.72, -14287.50
-9, 3220.66, -13850.01
-8, 3191.38, -13122.33
-7, 3165.52, -12309.01
-6, 3136.37, -11766.27
-5, 3108.37, -11336.54
-4, 3081.19, -10729.24
-3, 3055.13, -10019.24
-2, 3024.48, -9476.29
-1, 2997.84, -9051.49
0, 2971.80, -8527.77
-29, 2944.95, -7912.78
-28, 2920.59, -7389.82
-27, 2895.11, -6973.77
-26, 2870.61, -6510.24
-25, 2842.45, -5978.91
-24, 2815.51, -5489.05
-23, 2789.16, -5087.77
-22, 2765.96, -4668.99
-21, 2738.04, -4207.16
-20, 2714.48, -3757.37
-19, 2689.59, -3376.95
-18, 2665.60, -2994.37
-17, 2617.59, -2180.81
-16, 2591.37, -1823.30
-15, 2569.60, -1473.16
-14, 2545.17, -1112.80
-13, 2521.52, -746.70
-12, 2496.40, -415.61
-11, 2473.56, -96.72
-10, 2449.26, 225.17
-9, 2428.23, 551.62
-8, 2405.45, 856.38
-7, 2360.70, 1435.41
-6, 2340.09, 1724.93
-5, 2318.12, 2003.16
-4, 2296.80, 2265.04
-3, 2276.82, 2528.12
-2, 2253.17, 2784.58
-1, 2231.71, 3037.87
0, 2210.52, 3272.29
-29, 2191.21, 3509.22
-28, 2169.12, 3736.03
-27, 2151.15, 3964.66
-26, 2128.65, 4174.93
-25, 2108.06, 4387.65
-24, 2086.92, 4588.68
-23, 2069.21, 4792.41
-22, 2048.20, 4979.97
-21, 2030.30, 5169.87
-20, 2010.05, 5349.22
-19, 1994.24, 5529.51
-18, 1974.75, 5697.21
-17, 1958.55, 5864.11
-16, 1941.99, 6023.48
-15, 1923.34, 6180.79
-14, 1904.46, 6331.42
-13, 1887.00, 6477.13
-12, 1866.93, 6619.02
-11, 1846.63, 6754.65
-10, 1829.02, 6889.34
-9, 1810.96, 7014.80
-8, 1794.91, 7141.38
-7, 1777.46, 7258.55
-6, 1762.48, 7377.89
-5, 1744.78, 7485.73
-4, 1729.89, 7597.67
-3, 1713.44, 7697.45
-2, 1697.23, 7801.90
-1, 1679.91, 7893.54
0, 1663.62, 7990.50
-29, 1645.13, 8075.28
-28, 1631.52, 8164.69
-27, 1600.99, 8324.06
-26, 1586.75, 8396.54
-25, 1573.83, 8471.65
-24, 1557.89, 8538.14
-23, 1543.39, 8605.13
-22, 1528.72, 8667.04
-21, 1514.64, 8727.30
-20, 1501.52, 8785.89
-19, 1485.52, 8839.87
-18, 1469.38, 8892.91
-17, 1454.49, 8940.03
-16, 1441.44, 8988.31
-15, 1426.60, 9029.28
-14, 1413.68, 9073.89
-13, 1397.97, 9109.05
-12, 1369.20, 9179.15
-11, 1359.01, 9214.97
