%OpenBCI Raw EEG Data
%
%Sample Rate = 250.0 Hz
%First Column = SampleIndex
%Other Columns = EEG data in microvolts
-29, -138634.80, 0.00
-28, -199660.88, 0.00
-27, -204104.17, 0.00
-26, -156867.94, 0.00
-25, -142265.39, 0.00
-24, -164788.53, 0.00
-23, -169918.34, 0.00
-22, -150111.30, 0.00
-21, -138933.80, 0.00
-20, -143518.23, 0.00
-19, -144497.47, 0.00
-18, -136754.58, 0.00
-17, -130439.98, 0.00
-16, -128159.99, 0.00
-15, -125407.48, 0.00
-14, -119097.77, 0.00
-13, -115162.12, 0.00
-12, -110372.79, 0.00
-11, -107817.09, 0.00
-10, -106720.20, 0.00
-9, -103132.16, 0.00
-8, -97778.77, 0.00
-7, -95011.53, 0.00
-6, -94443.62, 0.00
-5, -91676.97, 0.00
-4, -86650.23, 0.00
-3, -83544.40, 0.00
-2, -82856.48, 0.00
-1, -80788.29, 0.00
0, -76472.93, 0.00
-29, -73227.39, 0.00
-28, -72188.84, 0.00
-27, -70554.32, 0.00
-26, -67012.76, 0.00
-25, -63855.24, 0.00
-24, -62472.14, 0.00
-23, -61046.77, 0.00
-22, -58181.94, 0.00
-21, -55267.63, 0.00
-20, -53646.26, 0.00
-19, -52292.05, 0.00
-18, -49955.38, 0.00
-17, -47355.85, 0.00
-16, -45621.29, 0.00
-15, -44276.59, 0.00
-14, -42325.97, 0.00
-13, -40050.72, 0.00
-12, -38308.23, 0.00
-11, -36961.53, 0.00
-10, -35284.77, 0.00
-9, -33307.61, 0.00
-8, -31630.46, 0.00
-7, -30295.93, 0.00
-6, -28814.41, 0.00
-5, -27094.40, 0.00
-4, -25525.62, 0.00
-3, -24226.00, 0.00
-2, -22889.46, 0.00
-1, -21384.00, 0.00
0, -19943.32, 0.00
-29, -18700.34, 0.00
-28, -17479.13, 0.00
-27, -16150.63, 0.00
-26, -14842.34, 0.00
-25, -13672.36, 0.00
-24, -12549.92, 0.00
-23, -11368.14, 0.00
-22, -10187.54, 0.00
-21, -9100.60, 0.00
-20, -8068.00, 0.00
-19, -7009.80, 0.00
-18, -5947.91, 0.00
-17, -4948.47, 0.00
-16, -4000.54, 0.00
-15, -3048.80, 0.00
-14, -2095.12, 0.00
-13, -1183.39, 0.00
-12, -316.43, 0.00
-11, 541.47, 0.00
-10, 1397.34, 0.00
-9, 2223.95, 0.00
-8, 3013.31, 0.00
-7, 3787.01, 0.00
-6, 4554.55, 0.00
-5, 5300.36, 0.00
-4, 6015.66, 0.00
-3, 6712.61, 0.00
-2, 7400.17, 0.00
-1, 8070.28, 0.00
0, 8715.39, 0.00
-29, 9341.75, 0.00
-28, 9956.61, 0.00
-27, 10556.37, 0.00
-26, 11135.41, 0.00
-25, 11696.49, 0.00
-24, 12244.93, 0.00
-23, 12779.72, 0.00
-22, 13296.94, 0.00
-21, 13797.55, 0.00
-20, 14760.11, 0.00
-19, 15219.82, 0.00
-18, 15664.35, 0.00
-17, 16096.16, 0.00
-16, 16515.93, 0.00
-15, 16922.24, 0.00
-14, 17314.82, 0.00
-13, 17695.23, 0.00
-12, 18064.23, 0.00
-11, 18421.12, 0.00
-10, 18765.61, 0.00
-9, 19098.65, 0.00
-8, 19420.94, 0.00
-7, 19732.27, 0.00
-6, 20032.39, 0.00
-5, 20321.82, 0.00
-4, 20601.24, 0.00
-3, 20870.63, 0.00
-2, 21129.82, 0.00
-1, 21379.20, 0.00
0, 21619.21, 0.00
-29, 21849.99, 0.00
-28, 22071.54, 0.00
-27, 22284.04, 0.00
-26, 22487.89, 0.00
-25, 22683.29, 0.00
-24, 22870.21, 0.00
-23, 23048.87, 0.00
-22, 23219.55, 0.00
-21, 23382.43, 0.00
-20, 23537.59, 0.00
-19, 23685.20, 0.00
-18, 23825.48, 0.00
-17, 23958.59, 0.00
-16, 24084.67, 0.00
-15, 24203.83, 0.00
-14, 24316.26, 0.00
-13, 24422.14, 0.00
-12, 24521.60, 0.00
-11, 24614.72, 0.00
-10, 24701.69, 0.00
-9, 24782.67, 0.00
-8, 24857.77, 0.00
-7, 24927.11, 0.00
-6, 24990.83, 0.00
-5, 25049.08, 0.00
-4, 25101.99, 0.00
-3, 25149.69, 0.00
-2, 25192.25, 0.00
-1, 25229.84, 0.00
0, 25262.54, 0.00
-29, 25290.50, 0.00
-28, 25313.79, 0.00
-27, 25332.57, 0.00
-26, 25346.94, 0.00
-25, 25357.00, 0.00
-24, 25362.88, 0.00
-23, 25364.67, 0.00
-22, 25362.46, 0.00
-21, 25356.35, 0.00
-20, 25346.45, 0.00
-19, 25332.82, 0.00
-18, 25315.58, 0.00
-17, 25294.82, 0.00
-16, 25270.63, 0.00
-15, 25243.12, 0.00
-14, 25212.36, 0.00
-13, 25178.46, 0.00
-12, 25141.44, 0.00
-11, 25101.43, 0.00
-10, 25058.52, 0.00
-9, 25012.76, 0.00
-8, 24964.26, 0.00
-7, 24913.07, 0.00
-6, 24859.27, 0.00
-5, 24744.07, 0.00
-4, 24682.85, 0.00
-3, 24619.28, 0.00
-2, 24553.46, 0.00
-1, 24485.46, 0.00
0, 24415.32, 0.00
-29, 24343.10, 0.00
-28, 24268.89, 0.00
-27, 24192.72, 0.00
-26, 24114.69, 0.00
-25, 24034.85, 0.00
-24, 23953.27, 0.00
-23, 23869.96, 0.00
-22, 23785.00, 0.00
-21, 23698.46, 0.00
-20, 23610.35, 0.00
-19, 23520.76, 0.00
-18, 23429.72, 0.00
-17, 23337.32, 0.00
-16, 23243.55, 0.00
-15, 23148.51, 0.00
-14, 23052.22, 0.00
-13, 22856.04, 0.00
-12, 22756.26, 0.00
-11, 22655.44, 0.00
-10, 22553.56, 0.00
-9, 22450.71, 0.00
-8, 22346.94, 0.00
-7, 22242.26, 0.00
-6, 22136.70, 0.00
-5, 22030.32, 0.00
-4, 21923.15, 0.00
-3, 21815.21, 0.00
-2, 21706.60, 0.00
-1, 21597.28, 0.00
0, 21487.31, 0.00
-29, 21376.74, 0.00
-28, 21265.58, 0.00
-27, 21153.87, 0.00
-26, 21041.64, 0.00
-25, 20928.92, 0.00
-24, 20815.73, 0.00
-23, 20702.09, 0.00
-22, 20588.03, 0.00
-21, 20473.62, 0.00
-20, 20358.86, 0.00
-19, 20243.79, 0.00
-18, 20128.41, 0.00
-17, 20012.77, 0.00
-16, 19896.87, 0.00
-15, 19780.76, 0.00
-14, 19664.46, 0.00
-13, 19547.96, 0.00
-12, 19431.33, 0.00
-11, 19314.54, 0.00
-10, 19197.64, 0.00
-9, 19080.65, 0.00
-8, 18963.60, 0.00
-7, 18846.47, 0.00
-6, 18729.33, 0.00
-5, 18612.16, 0.00
-4, 18377.83, 0.00
-3, 18260.72, 0.00
-2, 18143.67, 0.00
-1, 18026.70, 0.00
0, 17909.80, 0.00
-29, 17793.04, 0.00
-28, 17676.41, 0.00
-27, 17559.91, 0.00
-26, 17443.54, 0.00
-25, 17327.41, 0.00
-24, 17211.42, 0.00
-23, 17095.66, 0.00
-22, 16980.10, 0.00
-21, 16864.75, 0.00
-20, 16749.63, 0.00
-19, 16634.75, 0.00
-18, 16520.11, 0.00
-17, 16405.75, 0.00
-16, 16291.69, 0.00
-15, 16177.90, 0.00
-14, 16064.42, 0.00
-13, 15951.23, 0.00
-12, 15838.35, 0.00
-11, 15725.84, 0.00
-10, 15613.65, 0.00
-9, 15501.80, 0.00
-8, 15390.31, 0.00
-7, 15279.18, 0.00
-6, 15168.43, 0.00
-5, 15058.10, 0.00
-4, 14948.15, 0.00
-3, 14838.61, 0.00
-2, 14729.49, 0.00
-1, 14620.77, 0.00
0, 14512.47, 0.00
-29, 14404.60, 0.00
-28, 14297.16, 0.00
-27, 14190.16, 0.00
-26, 14083.56, 0.00
-25, 13977.46, 0.00
-24, 13871.80, 0.00
-23, 13766.64, 0.00
-22, 13661.92, 0.00
-21, 13557.67, 0.00
-20, 13453.92, 0.00
-19, 13350.61, 0.00
-18, 13247.79, 0.00
-17, 13145.44, 0.00
-16, 13043.58, 0.00
-15, 12942.22, 0.00
-14, 12841.34, 0.00
-13, 12740.98, 0.00
-12, 12641.14, 0.00
-11, 12541.79, 0.00
-10, 12442.95, 0.00
-9, 12344.62, 0.00
-8, 12246.79, 0.00
-7, 12149.49, 0.00
-6, 12052.73, 0.00
-5, 11956.51, 0.00
-4, 11860.77, 0.00
-3, 11765.60, 0.00
-2, 11670.94, 0.00
-1, 11576.82, 0.00
0, 11483.21, 0.00
-29, 11390.16, 0.00
-28, 11297.64, 0.00
-27, 11205.64, 0.00
-26, 11114.20, 0.00
-25, 11023.28, 0.00
-24, 10932.91, 0.00
-23, 10843.08, 0.00
-22, 10753.76, 0.00
-21, 10665.00, 0.00
-20, 10576.75, 0.00
-19, 10489.07, 0.00
-18, 10401.92, 0.00
-17, 10315.31, 0.00
-16, 10229.23, 0.00
-15, 10143.71, 0.00
-14, 10058.75, 0.00
-13, 9974.31, 0.00
-12, 9807.09, 0.00
-11, 9724.30, 0.00
-10, 9642.05, 0.00
-9, 9560.33, 0.00
-8, 9479.17, 0.00
-7, 9398.55, 0.00
-6, 9318.44, 0.00
-5, 9238.89, 0.00
-4, 9159.88, 0.00
-3, 9081.38, 0.00
-2, 9003.44, 0.00
-1, 8926.01, 0.00
0, 8849.10, 0.00
-29, 8772.75, 0.00
-28, 8696.91, 0.00
-27, 8621.60, 0.00
-26, 8546.84, 0.00
-25, 8472.56, 0.00
-24, 8398.82, 0.00
-23, 8325.62, 0.00
-22, 8252.93, 0.00
-21, 8180.78, 0.00
-20, 8109.15, 0.00
-19, 8038.02, 0.00
-18, 7967.41, 0.00
-17, 7897.32, 0.00
-16, 7827.71, 0.00
-15, 7758.65, 0.00
-14, 7690.09, 0.00
-13, 7622.03, 0.00
-12, 7554.46, 0.00
-11, 7487.41, 0.00
-10, 7420.85, 0.00
-9, 7354.80, 0.00
-8, 7289.24, 0.00
-7, 7224.19, 0.00
-6, 7159.62, 0.00
-5, 7095.54, 0.00
-4, 7031.92, 0.00
-3, 6968.80, 0.00
-2, 6906.15, 0.00
-1, 6843.99, 0.00
0, 6782.30, 0.00
-29, 6721.12, 0.00
-28, 6660.39, 0.00
-27, 6600.13, 0.00
-26, 6540.37, 0.00
-25, 6481.04, 0.00
-24, 6422.17, 0.00
-23, 6363.76, 0.00
-22, 6305.78, 0.00
-21, 6248.27, 0.00
-20, 6191.21, 0.00
-19, 6134.57, 0.00
-18, 6078.40, 0.00
-17, 6022.68, 0.00
-16, 5967.38, 0.00
-15, 5912.53, 0.00
-14, 5858.10, 0.00
-13, 5804.10, 0.00
-12, 5750.52, 0.00
-11, 5697.37, 0.00
-10, 5644.64, 0.00
-9, 5592.34, 0.00
-8, 5540.48, 0.00
-7, 5489.05, 0.00
-6, 5438.04, 0.00
-5, 5387.46, 0.00
-4, 5337.31, 0.00
-3, 5287.55, 0.00
-2, 5238.24, 0.00
-1, 5189.31, 0.00
0, 5140.79, 0.00
-29, 5092.67, 0.00
-28, 5044.97, 0.00
-27, 4997.65, 0.00
-26, 4950.73, 0.00
-25, 4904.22, 0.00
-24, 4858.11, 0.00
-23, 4812.40, 0.00
-22, 4767.07, 0.00
-21, 4722.10, 0.00
-20, 4677.50, 0.00
-19, 4633.29, 0.00
-18, 4589.46, 0.00
-17, 4545.99, 0.00
-16, 4502.89, 0.00
-15, 4460.16, 0.00
-14, 4417.78, 0.00
-13, 4375.78, 0.00
-12, 4334.14, 0.00
-11, 4292.83, 0.00
-10, 4251.90, 0.00
-9, 4211.34, 0.00
-8, 4171.10, 0.00
-7, 4131.23, 0.00
-6, 4091.69, 0.00
-5, 4052.48, 0.00
-4, 4013.64, 0.00
-3, 3975.15, 0.00
-2, 3936.99, 0.00
-1, 3899.17, 0.00
0, 3861.69, 0.00
-29, 3824.54, 0.00
-28, 3787.70, 0.00
-27, 3751.20, 0.00
-26, 3714.99, 0.00
-25, 3679.12, 0.00
-24, 3643.58, 0.00
-23, 3608.35, 0.00
-22, 3573.46, 0.00
-21, 3538.86, 0.00
-20, 3504.57, 0.00
-19, 3470.60, 0.00
-18, 3436.96, 0.00
-17, 3403.59, 0.00
-16, 3370.55, 0.00
-15, 3337.79, 0.00
-14, 3305.33, 0.00
-13, 3273.14, 0.00
-12, 3241.27, 0.00
-11, 3209.67, 0.00
-10, 3178.37, 0.00
-9, 3147.35, 0.00
-8, 3116.62, 0.00
-7, 3086.17, 0.00
-6, 3056.00, 0.00
-5, 3026.07, 0.00
-4, 2996.43, 0.00
-3, 2967.06, 0.00
-2, 2937.96, 0.00
-1, 2909.12, 0.00
0, 2880.54, 0.00
-29, 2852.24, 0.00
-28, 2824.19, 0.00
-27, 2796.40, 0.00
-26, 2768.87, 0.00
-25, 2741.58, 0.00
-24, 2714.55, 0.00
-23, 2687.77, 0.00
-22, 2661.24, 0.00
-21, 2634.96, 0.00
-20, 2608.92, 0.00
-19, 2583.08, 0.00
-18, 2557.49, 0.00
-17, 2532.12, 0.00
-16, 2506.97, 0.00
-15, 2482.05, 0.00
-14, 2457.37, 0.00
-13, 2432.90, 0.00
-12, 2408.67, 0.00
-11, 2360.90, 0.00
-10, 2337.34, 0.00
-9, 2314.01, 0.00
-8, 2290.87, 0.00
-7, 2267.96, 0.00
-6, 2245.28, 0.00
-5, 2222.79, 0.00
-4, 2200.51, 0.00
-3, 2178.45, 0.00
-2, 2156.59, 0.00
-1, 2134.93, 0.00
0, 2113.49, 0.00
-29, 2092.23, 0.00
-28, 2071.20, 0.00
-27, 2050.35, 0.00
-26, 2029.72, 0.00
-25, 2009.27, 0.00
-24, 1989.01, 0.00
-23, 1968.96, 0.00
-22, 1949.09, 0.00
-21, 1929.42, 0.00
-20, 1909.93, 0.00
-19, 1890.64, 0.00
-18, 1871.51, 0.00
-17, 1852.58, 0.00
-16, 1833.83, 0.00
-15, 1815.23, 0.00
-14, 1796.83, 0.00
-13, 1778.62, 0.00
-12, 1760.58, 0.00
-11, 1742.72, 0.00
-10, 1725.02, 0.00
-9, 1707.47, 0.00
-8, 1690.10, 0.00
-7, 1672.92, 0.00
-6, 1655.88, 0.00
-5, 1639.01, 0.00
-4, 1622.29, 0.00
-3, 1589.37, 0.00
-2, 1573.12, 0.00
-1, 1557.04, 0.00
0, 1541.13, 0.00
-29, 1525.35, 0.00
-28, 1509.73, 0.00
-27, 1494.26, 0.00
-26, 1478.95, 0.00
-25, 1463.79, 0.00
-24, 1448.77, 0.00
-23, 1433.91, 0.00
-22, 1419.20, 0.00
-21, 1404.65, 0.00
-20, 1390.21, 0.00
-19, 1375.93, 0.00
-18, 1361.78, 0.00
-17, 1347.77, 0.00
-16, 1333.86, 0.00
-15, 1320.12, 0.00
-14, 1306.50, 0.00
-13, 1293.03, 0.00
-12, 1279.68, 0.00
-11, 1266.47, 0.00
-10, 1253.37, 0.00
-9, 1240.43, 0.00
-8, 1227.60, 0.00
-7, 1214.88, 0.00
-6, 1202.32, 0.00
-5, 1189.85, 0.00
-4, 1177.51, 0.00
-3, 1165.31, 0.00
-2, 1153.22, 0.00
-1, 1141.24, 0.00
0, 1129.39, 0.00
-29, 1117.68, 0.00
-28, 1106.05, 0.00
-27, 1094.56, 0.00
-26, 1083.19, 0.00
-25, 1071.92, 0.00
-24, 1060.77, 0.00
-23, 1049.75, 0.00
-22, 1038.82, 0.00
-21, 1028.00, 0.00
-20, 1017.29, 0.00
-19, 1006.70, 0.00
-18, 996.22, 0.00
-17, 985.85, 0.00
-16, 975.56, 0.00
-15, 965.39, 0.00
-14, 955.31, 0.00
-13, 945.34, 0.00
-12, 935.47, 0.00
-11, 925.70, 0.00
-10, 906.45, 0.00
-9, 897.00, 0.00
-8, 887.61, 0.00
-7, 878.36, 0.00
-6, 869.19, 0.00
-5, 860.10, 0.00
-4, 851.11, 0.00
-3, 842.21, 0.00
-2, 833.41, 0.00
-1, 824.69, 0.00
0, 816.06, 0.00
-29, 807.52, 0.00
-28, 799.05, 0.00
-27, 790.65, 0.00
-26, 782.36, 0.00
-25, 774.13, 0.00
-24, 765.99, 0.00
-23, 757.93, 0.00
-22, 749.97, 0.00
-21, 742.06, 0.00
-20, 734.25, 0.00
-19, 726.52, 0.00
-18, 718.88, 0.00
-17, 711.30, 0.00
-16, 703.79, 0.00
-15, 696.37, 0.00
-14, 689.04, 0.00
-13, 681.77, 0.00
-12, 674.58, 0.00
-11, 667.45, 0.00
-10, 660.40, 0.00
-9, 653.43, 0.00
-8, 646.55, 0.00
-7, 639.73, 0.00
-6, 632.96, 0.00
-5, 626.27, 0.00
-4, 619.66, 0.00
-3, 613.11, 0.00
-2, 606.60, 0.00
-1, 600.19, 0.00
0, 593.82, 0.00
-29, 587.54, 0.00
-28, 581.30, 0.00
-27, 575.13, 0.00
-26, 569.03, 0.00
-25, 563.00, 0.00
-24, 557.01, 0.00
-23, 551.08, 0.00
-22, 545.23, 0.00
-21, 539.44, 0.00
-20, 533.69, 0.00
-19, 528.04, 0.00
-18, 522.40, 0.00
-17, 516.86, 0.00
-16, 511.36, 0.00
-15, 505.91, 0.00
-14, 500.52, 0.00
-13, 495.18, 0.00
-12, 489.91, 0.00
-11, 484.68, 0.00
-10, 479.49, 0.00
-9, 474.35, 0.00
-8, 469.27, 0.00
-7, 464.25, 0.00
-6, 459.26, 0.00
-5, 454.32, 0.00
-4, 449.45, 0.00
-3, 444.62, 0.00
-2, 439.84, 0.00
-1, 435.12, 0.00
0, 430.43, 0.00
-29, 425.80, 0.00
-28, 421.22, 0.00
-27, 416.68, 0.00
-26, 412.19, 0.00
-25, 407.74, 0.00
-24, 403.34, 0.00
-23, 398.98, 0.00
-22, 394.66, 0.00
-21, 390.40, 0.00
-20, 386.17, 0.00
-19, 382.01, 0.00
-18, 377.88, 0.00
-17, 373.81, 0.00
-16, 369.76, 0.00
-15, 365.79, 0.00
-14, 361.83, 0.00
-13, 357.94, 0.00
-12, 354.07, 0.00
-11, 350.25, 0.00
-10, 346.45, 0.00
-9, 342.72, 0.00
-8, 339.01, 0.00
-7, 335.34, 0.00
-6, 331.72, 0.00
-5, 328.15, 0.00
-4, 324.61, 0.00
-3, 321.13, 0.00
-2, 317.66, 0.00
-1, 314.24, 0.00
0, 310.89, 0.00
-29, 307.54, 0.00
-28, 304.23, 0.00
-27, 300.97, 0.00
-26, 297.73, 0.00
-25, 294.51, 0.00
-24, 291.35, 0.00
-23, 288.20, 0.00
-22, 285.10, 0.00
-21, 282.03, 0.00
-20, 278.99, 0.00
-19, 276.00, 0.00
-18, 273.03, 0.00
-17, 270.08, 0.00
-16, 267.17, 0.00
-15, 264.31, 0.00
-14, 261.47, 0.00
-13, 258.65, 0.00
-12, 255.88, 0.00
-11, 253.13, 0.00
-10, 250.43, 0.00
-9, 247.75, 0.00
-8, 245.09, 0.00
-7, 242.47, 0.00
-6, 239.90, 0.00
-5, 237.35, 0.00
-4, 234.83, 0.00
-3, 232.32, 0.00
-2, 229.84, 0.00
-1, 227.38, 0.00
0, 224.95, 0.00
-29, 222.56, 0.00
-28, 220.19, 0.00
-27, 217.82, 0.00
-26, 215.52, 0.00
-25, 213.21, 0.00
-24, 210.93, 0.00
-23, 208.68, 0.00
-22, 206.44, 0.00
-21, 204.25, 0.00
-20, 202.06, 0.00
-19, 199.89, 0.00
-18, 197.75, 0.00
-17, 195.64, 0.00
-16, 193.54, 0.00
-15, 191.47, 0.00
-14, 189.41, 0.00
-13, 185.36, 0.00
-12, 183.37, 0.00
-11, 181.41, 0.00
-10, 179.46, 0.00
-9, 177.52, 0.00
-8, 175.62, 0.00
-7, 173.72, 0.00
-6, 171.84, 0.00
-5, 169.99, 0.00
-4, 168.17, 0.00
-3, 166.34, 0.00
-2, 164.55, 0.00
-1, 162.77, 0.00
0, 160.98, 0.00
-29, 159.21, 0.00
-28, 157.45, 0.00
-27, 155.72, 0.00
-26, 154.00, 0.00
-25, 152.30, 0.00
-24, 150.63, 0.00
-23, 148.97, 0.00
-22, 145.73, 0.00
-21, 144.12, 0.00
-20, 142.54, 0.00
-19, 140.97, 0.00
-18, 139.43, 0.00
-17, 137.89, 0.00
-16, 136.37, 0.00
-15, 134.87, 0.00
-14, 133.40, 0.00
-13, 131.92, 0.00
-12, 130.47, 0.00
-11, 129.01, 0.00
-10, 127.58, 0.00
-9, 126.18, 0.00
-8, 124.77, 0.00
-7, 123.40, 0.00
-6, 122.04, 0.00
-5, 120.68, 0.00
-4, 119.34, 0.00
-3, 117.99, 0.00
-2, 116.68, 0.00
-1, 115.38, 0.00
0, 114.06, 0.00
-29, 112.79, 0.00
-28, 111.51, 0.00
-27, 110.26, 0.00
-26, 109.03, 0.00
-25, 107.80, 0.00
-24, 106.60, 0.00
-23, 105.41, 0.00
-22, 104.23, 0.00
-21, 103.04, 0.00
-20, 101.88, 0.00
-19, 100.72, 0.00
-18, 99.58, 0.00
-17, 98.46, 0.00
-16, 97.36, 0.00
-15, 96.27, 0.00
-14, 95.20, 0.00
-13, 94.15, 0.00
-12, 93.07, 0.00
-11, 92.04, 0.00
-10, 91.02, 0.00
-9, 89.99, 0.00
-8, 88.98, 0.00
-7, 87.98, 0.00
-6, 86.99, 0.00
-5, 86.03, 0.00
-4, 85.05, 0.00
-3, 84.09, 0.00
-2, 83.15, 0.00
-1, 82.21, 0.00
0, 81.27, 0.00
-29, 80.35, 0.00
-28, 79.44, 0.00
-27, 78.54, 0.00
-26, 77.65, 0.00
-25, 76.78, 0.00
-24, 75.93, 0.00
-23, 75.08, 0.00
-22, 74.23, 0.00
-21, 73.40, 0.00
-20, 72.58, 0.00
-19, 71.75, 0.00
-18, 70.94, 0.00
-17, 70.14, 0.00
-16, 69.36, 0.00
-15, 68.58, 0.00
-14, 67.82, 0.00
-13, 67.06, 0.00
-12, 66.30, 0.00
-11, 65.54, 0.00
-10, 64.80, 0.00
-9, 64.08, 0.00
-8, 63.34, 0.00
-7, 62.65, 0.00
-6, 61.94, 0.00
-5, 61.24, 0.00
-4, 60.57, 0.00
-3, 59.88, 0.00
-2, 59.23, 0.00
-1, 58.58, 0.00
0, 57.94, 0.00
-29, 57.29, 0.00
-28, 56.66, 0.00
-27, 56.01, 0.00
-26, 55.39, 0.00
-25, 54.78, 0.00
-24, 54.18, 0.00
-23, 53.58, 0.00
-22, 52.97, 0.00
-21, 52.39, 0.00
-20, 51.81, 0.00
-19, 51.23, 0.00
-18, 50.67, 0.00
-17, 50.11, 0.00
-16, 49.55, 0.00
-15, 49.02, 0.00
-14, 48.46, 0.00
-13, 47.94, 0.00
-12, 47.41, 0.00
-11, 46.89, 0.00
-10, 46.36, 0.00
-9, 45.84, 0.00
-8, 45.33, 0.00
-7, 44.84, 0.00
-6, 43.85, 0.00
-5, 43.36, 0.00
-4, 42.87, 0.00
-3, 42.38, 0.00
-2, 41.91, 0.00
-1, 41.44, 0.00
0, 40.97, 0.00
-29, 40.52, 0.00
-28, 40.08, 0.00
-27, 39.65, 0.00
-26, 39.23, 0.00
-25, 38.82, 0.00
-24, 38.42, 0.00
-23, 38.02, 0.00
-22, 37.62, 0.00
-21, 37.22, 0.00
-20, 36.81, 0.00
-19, 36.41, 0.00
-18, 36.03, 0.00
-17, 35.63, 0.00
-16, 35.27, 0.00
-15, 34.89, 0.00
-14, 34.53, 0.00
-13, 34.15, 0.00
-12, 33.80, 0.00
-11, 33.44, 0.00
-10, 33.08, 0.00
-9, 32.72, 0.00
-8, 32.37, 0.00
-7, 32.01, 0.00
-6, 31.65, 0.00
-5, 31.31, 0.00
-4, 30.96, 0.00
-3, 30.62, 0.00
-2, 30.29, 0.00
-1, 29.95, 0.00
0, 29.62, 0.00
-29, 29.30, 0.00
-28, 28.99, 0.00
-27, 28.68, 0.00
-26, 28.36, 0.00
-25, 28.05, 0.00
-24, 27.76, 0.00
-23, 27.45, 0.00
-22, 27.16, 0.00
-21, 26.84, 0.00
-20, 26.55, 0.00
-19, 26.24, 0.00
-18, 25.95, 0.00
-17, 25.66, 0.00
-16, 25.37, 0.00
-15, 25.08, 0.00
-14, 24.79, 0.00
-13, 24.50, 0.00
-12, 24.23, 0.00
-11, 23.94, 0.00
-10, 23.67, 0.00
-9, 23.40, 0.00
-8, 23.13, 0.00
-7, 22.87, 0.00
-6, 22.60, 0.00
-5, 22.35, 0.00
-4, 22.08, 0.00
-3, 21.84, 0.00
-2, 21.57, 0.00
-1, 21.32, 0.00
0, 21.06, 0.00
-29, 20.81, 0.00
-28, 20.54, 0.00
-27, 20.30, 0.00
-26, 20.07, 0.00
-25, 19.83, 0.00
-24, 19.60, 0.00
-23, 19.36, 0.00
-22, 19.13, 0.00
-21, 18.89, 0.00
-20, 18.66, 0.00
-19, 18.42, 0.00
-18, 18.19, 0.00
-17, 17.95, 0.00
-16, 17.72, 0.00
-15, 17.50, 0.00
-14, 17.28, 0.00
-13, 17.05, 0.00
-12, 16.83, 0.00
-11, 16.63, 0.00
-10, 16.43, 0.00
-9, 16.21, 0.00
-8, 16.00, 0.00
-7, 15.78, 0.00
-6, 15.58, 0.00
-5, 15.36, 0.00
-4, 15.15, 0.00
-3, 14.93, 0.00
-2, 14.73, 0.00
-1, 14.53, 0.00
0, 14.33, 0.00
-29, 14.15, 0.00
-28, 13.95, 0.00
-27, 13.77, 0.00
-26, 13.57, 0.00
-25, 13.39, 0.00
-24, 13.19, 0.00
-23, 13.01, 0.00
-22, 12.83, 0.00
-21, 12.65, 0.00
-20, 12.47, 0.00
-19, 12.29, 0.00
-18, 12.11, 0.00
-17, 11.96, 0.00
-16, 11.78, 0.00
-15, 11.62, 0.00
-14, 11.47, 0.00
-13, 11.29, 0.00
-12, 11.11, 0.00
-11, 10.95, 0.00
-10, 10.80, 0.00
-9, 10.64, 0.00
-8, 10.48, 0.00
-7, 10.33, 0.00
-6, 10.19, 0.00
-5, 10.04, 0.00
-4, 9.90, 0.00
-3, 9.77, 0.00
-2, 9.63, 0.00
-1, 9.52, 0.00
0, 9.39, 0.00
-29, 9.25, 0.00
-28, 9.14, 0.00
-27, 9.03, 0.00
-26, 8.92, 0.00
-25, 8.81, 0.00
-24, 8.69, 0.00
-23, 8.58, 0.00
-22, 8.49, 0.00
-21, 8.38, 0.00
-20, 8.29, 0.00
-19, 8.20, 0.00
-18, 8.09, 0.00
-17, 8.02, 0.00
-16, 7.93, 0.00
-15, 7.85, 0.00
-14, 7.76, 0.00
-13, 7.67, 0.00
-12, 7.60, 0.00
-11, 7.53, 0.00
-10, 7.44, 0.00
-9, 7.35, 0.00
-8, 7.29, 0.00
-7, 7.22, 0.00
-6, 7.15, 0.00
-5, 7.09, 0.00
-4, 7.02, 0.00
-3, 6.95, 0.00
-2, 6.88, 0.00
-1, 6.82, 0.00
0, 6.75, 0.00
-29, 6.68, 0.00
-28, 6.62, 0.00
-27, 6.55, 0.00
-26, 6.48, 0.00
-25, 6.44, 0.00
-24, 6.37, 0.00
-23, 6.33, 0.00
-22, 6.26, 0.00
-21, 6.21, 0.00
-20, 6.15, 0.00
-19, 6.10, 0.00
-18, 6.03, 0.00
-17, 5.99, 0.00
-16, 5.95, 0.00
-15, 5.90, 0.00
-14, 5.86, 0.00
-13, 5.81, 0.00
-12, 5.77, 0.00
-11, 5.72, 0.00
-10, 5.68, 0.00
-9, 5.63, 0.00
-8, 5.59, 0.00
-7, 5.54, 0.00
-6, 5.52, 0.00
-5, 5.48, 0.00
-4, 5.45, 0.00
-3, 5.41, 0.00
-2, 5.39, 0.00
-1, 5.34, 0.00
0, 5.32, 0.00
-29, 5.28, 0.00
-28, 5.25, 0.00
-27, 5.21, 0.00
-26, 5.19, 0.00
-25, 5.14, 0.00
-24, 5.12, 0.00
-23, 5.07, 0.00
-22, 5.05, 0.00
-21, 5.01, 0.00
-20, 4.98, 0.00
-19, 4.94, 0.00
-18, 4.92, 0.00
-17, 4.87, 0.00
-16, 4.85, 0.00
-15, 4.81, 0.00
-14, 4.78, 0.00
-13, 4.74, 0.00
-12, 4.72, 0.00
-11, 4.67, 0.00
-10, 4.65, 0.00
-9, 4.60, 0.00
-8, 4.58, 0.00
-7, 4.54, 0.00
-6, 4.52, 0.00
-5, 4.47, 0.00
-4, 4.45, 0.00
-3, 4.40, 0.00
-2, 4.38, 0.00
-1, 4.34, 0.00
0, 4.31, 0.00
-29, 4.27, 0.00
-28, 4.25, 0.00
-27, 4.22, 0.00
-26, 4.20, 0.00
-25, 4.18, 0.00
-24, 4.16, 0.00
-23, 4.14, 0.00
-22, 4.11, 0.00
-21, 4.09, 0.00
-20, 4.07, 0.00
-19, 4.05, 0.00
-18, 4.02, 0.00
-17, 4.00, 0.00
-16, 3.98, 0.00
-15, 3.96, 0.00
-14, 3.93, 0.00
-13, 3.91, 0.00
-12, 3.89, 0.00
-11, 3.87, 0.00
-10, 3.84, 0.00
-9, 3.82, 0.00
-8, 3.80, 0.00
-7, 3.78, 0.00
-6, 3.76, 0.00
-5, 3.73, 0.00
-4, 3.71, 0.00
-3, 3.69, 0.00
-2, 3.67, 0.00
-1, 3.64, 0.00
0, 3.62, 0.00
-29, 3.60, 0.00
-28, 3.55, 0.00
-27, 3.53, 0.00
-26, 3.51, 0.00
-25, 3.49, 0.00
-24, 3.46, 0.00
-23, 3.44, 0.00
-22, 3.42, 0.00
-21, 3.40, 0.00
-20, 3.38, 0.00
-19, 3.35, 0.00
-18, 3.33, 0.00
-17, 3.31, 0.00
-16, 3.29, 0.00
-15, 3.26, 0.00
-14, 3.24, 0.00
-13, 3.22, 0.00
-12, 3.20, 0.00
-11, 3.17, 0.00
-10, 3.15, 0.00
-9, 3.13, 0.00
-8, 3.11, 0.00
-7, 3.08, 0.00
-6, 3.06, 0.00
-5, 3.04, 0.00
-4, 3.02, 0.00
-3, 3.00, 0.00
-2, 2.97, 0.00
-1, 2.95, 0.00
0, 2.93, 0.00
-29, 2.91, 0.00
-28, 2.88, 0.00
-27, 2.88, 0.00
-26, 2.86, 0.00
-25, 2.86, 0.00
-24, 2.84, 0.00
-23, 2.84, 0.00
-22, 2.82, 0.00
-21, 2.82, 0.00
-20, 2.79, 0.00
-19, 2.79, 0.00
-18, 2.77, 0.00
-17, 2.77, 0.00
-16, 2.75, 0.00
-15, 2.75, 0.00
-14, 2.73, 0.00
-13, 2.73, 0.00
-12, 2.70, 0.00
-11, 2.70, 0.00
-10, 2.68, 0.00
-9, 2.68, 0.00
-8, 2.66, 0.00
-7, 2.66, 0.00
-6, 2.64, 0.00
-5, 2.64, 0.00
-4, 2.62, 0.00
-3, 2.62, 0.00
-2, 2.59, 0.00
-1, 2.59, 0.00
0, 2.57, 0.00
-29, 2.57, 0.00
-28, 2.55, 0.00
-27, 2.55, 0.00
-26, 2.53, 0.00
-25, 2.53, 0.00
-24, 2.50, 0.00
-23, 2.50, 0.00
-22, 2.48, 0.00
-21, 2.48, 0.00
-20, 2.46, 0.00
-19, 2.46, 0.00
-18, 2.44, 0.00
-17, 2.44, 0.00
-16, 2.41, 0.00
-15, 2.41, 0.00
-14, 2.39, 0.00
-13, 2.39, 0.00
-12, 2.37, 0.00
-11, 2.37, 0.00
-10, 2.35, 0.00
-9, 2.35, 0.00
-8, 2.32, 0.00
-7, 2.32, 0.00
-6, 2.30, 0.00
-5, 2.30, 0.00
-4, 2.28, 0.00
-3, 2.28, 0.00
-2, 2.26, 0.00
-1, 2.26, 0.00
0, 2.24, 0.00
-29, 2.24, 0.00
-28, 2.21, 0.00
-27, 2.21, 0.00
-26, 2.19, 0.00
-25, 2.19, 0.00
-24, 2.17, 0.00
-23, 2.17, 0.00
-22, 2.15, 0.00
-21, 2.15, 0.00
-20, 2.12, 0.00
-19, 2.12, 0.00
-18, 2.10, 0.00
-17, 2.10, 0.00
-16, 2.08, 0.00
-15, 2.08, 0.00
-14, 2.06, 0.00
-13, 2.06, 0.00
-12, 2.03, 0.00
-11, 2.03, 0.00
-10, 2.01, 0.00
-9, 2.01, 0.00
-8, 1.99, 0.00
-7, 1.99, 0.00
-6, 1.97, 0.00
-5, 1.97, 0.00
-4, 1.94, 0.00
-3, 1.94, 0.00
-2, 1.92, 0.00
-1, 1.92, 0.00
0, 1.90, 0.00
-29, 1.90, 0.00
-28, 1.88, 0.00
-27, 1.88, 0.00
-26, 1.86, 0.00
-25, 1.86, 0.00
-24, 1.83, 0.00
-23, 1.83, 0.00
-22, 1.81, 0.00
-21, 1.81, 0.00
-20, 1.79, 0.00
-19, 1.79, 0.00
-18, 1.77, 0.00
-17, 1.77, 0.00
-16, 1.74, 0.00
-15, 1.74, 0.00
-14, 1.72, 0.00
-13, 1.72, 0.00
-12, 1.70, 0.00
-11, 1.70, 0.00
-10, 1.68, 0.00
-9, 1.68, 0.00
-8, 1.65, 0.00
-7, 1.65, 0.00
-6, 1.63, 0.00
-5, 1.63, 0.00
-4, 1.61, 0.00
-3, 1.61, 0.00
-2, 1.59, 0.00
-1, 1.59, 0.00
0, 1.56, 0.00
-29, 1.56, 0.00
-28, 1.54, 0.00
-27, 1.54, 0.00
-26, 1.52, 0.00
-25, 1.52, 0.00
-24, 1.50, 0.00
-23, 1.50, 0.00
-22, 1.48, 0.00
-21, 1.48, 0.00
-20, 1.45, 0.00
-19, 1.45, 0.00
-18, 1.43, 0.00
-17, 1.43, 0.00
-16, 1.41, 0.00
-15, 1.41, 0.00
-14, 1.39, 0.00
-13, 1.39, 0.00
-12, 1.36, 0.00
-11, 1.36, 0.00
-10, 1.34, 0.00
-9, 1.34, 0.00
-8, 1.32, 0.00
-7, 1.32, 0.00
-6, 1.30, 0.00
-5, 1.30, 0.00
-4, 1.27, 0.00
-3, 1.27, 0.00
-2, 1.25, 0.00
-1, 1.25, 0.00
0, 1.23, 0.00
-29, 1.23, 0.00
-28, 1.21, 0.00
-27, 1.21, 0.00
-26, 1.18, 0.00
-25, 1.18, 0.00
-24, 1.16, 0.00
-23, 1.16, 0.00
-22, 1.14, 0.00
-21, 1.14, 0.00
-20, 1.12, 0.00
-19, 1.12, 0.00
-18, 1.12, 0.00
-17, 1.10, 0.00
-16, 1.10, 0.00
-15, 1.12, 0.00
-14, 1.12, 0.00
-13, 1.10, 0.00
-12, 1.10, 0.00
-11, 1.12, 0.00
-10, 1.12, 0.00
-9, 1.10, 0.00
-8, 1.10, 0.00
-7, 1.12, 0.00
-6, 1.12, 0.00
-5, 1.10, 0.00
-4, 1.10, 0.00
-3, 1.10, 0.00
-2, 1.10, 0.00
-1, 1.12, 0.00
0, 1.12, 0.00
-29, 1.10, 0.00
-28, 1.10, 0.00
-27, 1.12, 0.00
-26, 1.12, 0.00
-25, 1.10, 0.00
-24, 1.10, 0.00
-23, 1.10, 0.00
-22, 1.12, 0.00
-21, 1.12, 0.00
-20, 1.10, 0.00
-19, 1.10, 0.00
-18, 1.12, 0.00
-17, 1.12, 0.00
-16, 1.10, 0.00
-15, 1.10, 0.00
-14, 1.12, 0.00
-13, 1.12, 0.00
-12, 1.10, 0.00
-11, 1.10, 0.00
-10, 1.12, 0.00
-9, 1.12, 0.00
-8, 1.10, 0.00
-7, 1.10, 0.00
-6, 1.12, 0.00
-5, 1.12, 0.00
-4, 1.10, 0.00
-3, 1.10, 0.00
-2, 1.12, 0.00
-1, 1.12, 0.00
0, 1.12, 0.00
-29, 1.10, 0.00
-28, 1.10, 0.00
-27, 1.12, 0.00
-26, 1.12, 0.00
-25, 1.10, 0.00
-24, 1.10, 0.00
-23, 1.12, 0.00
-22, 1.12, 0.00
-21, 1.10, 0.00
-20, 1.10, 0.00
-19, 1.12, 0.00
-18, 1.12, 0.00
-17, 1.10, 0.00
-16, 1.10, 0.00
-15, 1.12, 0.00
-14, 1.12, 0.00
-13, 1.10, 0.00
-12, 1.10, 0.00
-11, 1.12, 0.00
-10, 1.12, 0.00
-9, 1.10, 0.00
-8, 1.10, 0.00
-7, 1.12, 0.00
-6, 1.12, 0.00
-5, 1.12, 0.00
-4, 1.10, 0.00
-3, 1.10, 0.00
-2, 1.12, 0.00
-1, 1.12, 0.00
0, 1.10, 0.00
-29, 1.10, 0.00
-28, 1.12, 0.00
-27, 1.12, 0.00
-26, 1.10, 0.00
-25, 1.10, 0.00
-24, 1.12, 0.00
-23, 1.12, 0.00
-22, 1.10, 0.00
-21, 1.10, 0.00
-20, 1.12, 0.00
-19, 1.12, 0.00
-18, 1.10, 0.00
-17, 1.10, 0.00
-16, 1.12, 0.00
-15, 1.12, 0.00
-14, 1.10, 0.00
-13, 1.10, 0.00
-12, 1.12, 0.00
-11, 1.12, 0.00
-10, 1.10, 0.00
-9, 1.10, 0.00
-8, 1.12, 0.00
-7, 1.12, 0.00
-6, 1.10, 0.00
-5, 1.10, 0.00
-4, 1.12, 0.00
-3, 1.12, 0.00
-2, 1.10, 0.00
-1, 1.10, 0.00
0, 1.12, 0.00
-29, 1.12, 0.00
-28, 1.10, 0.00
-27, 1.10, 0.00
-26, 1.12, 0.00
-25, 1.12, 0.00
-24, 1.10, 0.00
-23, 1.10, 0.00
-22, 1.12, 0.00
-21, 1.12, 0.00
-20, 1.10, 0.00
-19, 1.10, 0.00
-18, 1.12, 0.00
-17, 1.12, 0.00
-16, 1.10, 0.00
-15, 1.10, 0.00
-14, 1.12, 0.00
-13, 1.12, 0.00
-12, 1.10, 0.00
-11, 1.10, 0.00
-10, 1.12, 0.00
-9, 1.12, 0.00
-8, 1.10, 0.00
-7, 1.10, 0.00
-6, 1.12, 0.00
-5, 1.12, 0.00
-4, 1.10, 0.00
-3, 1.10, 0.00
-2, 1.12, 0.00
-1, 1.12, 0.00
0, 1.10, 0.00
-29, 1.10, 0.00
-28, 1.12, 0.00
-27, 1.12, 0.00
-26, 1.10, 0.00
-25, 1.10, 0.00
-24, 1.12, 0.00
-23, 1.12, 0.00
-22, 1.10, 0.00
-21, 1.10, 0.00
-20, 1.12, 0.00
-19, 1.12, 0.00
-18, 1.10, 0.00
-17, 1.10, 0.00
-16, 1.12, 0.00
-15, 1.12, 0.00
-14, 1.10, 0.00
-13, 1.10, 0.00
-12, 1.12, 0.00
-11, 1.12, 0.00
-10, 1.10, 0.00
-9, 1.10, 0.00
-8, 1.12, 0.00
-7, 1.12, 0.00
-6, 1.10, 0.00
-5, 1.10, 0.00
-4, 1.12, 0.00
-3, 1.12, 0.00
-2, 1.10, 0.00
-1, 1.10, 0.00
0, 1.12, 0.00
-29, 1.12, 0.00
-28, 1.10, 0.00
-27, 1.10, 0.00
-26, 1.12, 0.00
-25, 1.12, 0.00
-24, 1.10, 0.00
-23, 1.10, 0.00
-22, 1.12, 0.00
-21, 1.12, 0.00
-20, 1.10, 0.00
-19, 1.10, 0.00
-18, 1.12, 0.00
-17, 1.12, 0.00
-16, 1.10, 0.00
-15, 1.10, 0.00
-14, 1.12, 0.00
-13, 1.12, 0.00
-12, 1.10, 0.00
-11, 1.10, 0.00
-10, 1.12, 0.00
-9, 1.12, 0.00
-8, 1.10, 0.00
-7, 1.10, 0.00
-6, 1.12, 0.00
-5, 1.12, 0.00
-4, 1.10, 0.00
-3, 1.10, 0.00
-2, 1.12, 0.00
-1, 1.12, 0.00
0, 1.10, 0.00
-29, 1.10, 0.00
-28, 1.12, 0.00
-27, 1.12, 0.00
-26, 1.10, 0.00
-25, 1.10, 0.00
-24, 1.12, 0.00
-23, 1.12, 0.00
-22, 1.10, 0.00
-21, 1.10, 0.00
-20, 1.12, 0.00
-19, 1.12, 0.00
-18, 1.10, 0.00
-17, 1.10, 0.00
-16, 1.12, 0.00
-15, 1.12, 0.00
-14, 1.10, 0.00
-13, 1.10, 0.00
-12, 1.12, 0.00
-11, 1.12, 0.00
-10, 1.10, 0.00
-9, 1.10, 0.00
-8, 1.12, 0.00
-7, 1.12, 0.00
-6, 1.10, 0.00
-5, 1.10, 0.00
-4, 1.12, 0.00
-3, 1.12, 0.00
-2, 1.10, 0.00
-1, 1.10, 0.00
0, 1.12, 0.00
-29, 1.12, 0.00
-28, 1.10, 0.00
-27, 1.10, 0.00
-26, 1.12, 0.00
-25, 1.12, 0.00
-24, 1.10, 0.00
-23, 1.10, 0.00
-22, 1.12, 0.00
-21, 1.12, 0.00
-20, 1.10, 0.00
-19, 1.10, 0.00
-18, 1.12, 0.00
-17, 1.12, 0.00
-16, 1.10, 0.00
-15, 1.10, 0.00
-14, 1.12, 0.00
-13, 1.12, 0.00
-12, 1.10, 0.00
-11, 1.10, 0.00
-10, 1.12, 0.00
-9, 1.12, 0.00
-8, 1.10, 0.00
-7, 1.10, 0.00
-6, 1.12, 0.00
-5, 1.12, 0.00
-4, 1.10, 0.00
-3, 1.10, 0.00
-2, 1.12, 0.00
-1, 1.12, 0.00
0, 1.10, 0.00
-29, 1.10, 0.00
-28, 1.12, 0.00
-27, 1.12, 0.00
-26, 1.10, 0.00
-25, 1.10, 0.00
-24, 1.12, 0.00
-23, 1.12, 0.00
-22, 1.10, 0.00
-21, 1.10, 0.00
-20, 1.12, 0.00
-19, 1.12, 0.00
-18, 1.10, 0.00
-17, 1.10, 0.00
-16, 1.12, 0.00
-15, 1.12, 0.00
-14, 1.10, 0.00
-13, 1.10, 0.00
-12, 1.12, 0.00
-11, 1.12, 0.00
-10, 1.10, 0.00
-9, 1.10, 0.00
-8, 1.12, 0.00
-7, 1.12, 0.00
-6, 1.10, 0.00
-5, 1.10, 0.00
-4, 1.12, 0.00
-3, 1.12, 0.00
-2, 1.10, 0.00
-1, 1.10, 0.00
0, 1.12, 0.00
-29, 1.12, 0.00
-28, 1.10, 0.00
-27, 1.10, 0.00
-26, 1.12, 0.00
-25, 1.12, 0.00
-24, 1.10, 0.00
-23, 1.10, 0.00
-22, 1.12, 0.00
-21, 1.12, 0.00
-20, 1.10, 0.00
-19, 1.10, 0.00
-18, 1.12, 0.00
-17, 1.12, 0.00
-16, 1.10, 0.00
-15, 1.10, 0.00
-14, 1.12, 0.00
-13, 1.12, 0.00
-12, 1.10, 0.00
-11, 1.10, 0.00
-10, 1.12, 0.00
-9, 1.12, 0.00
-8, 1.10, 0.00
-7, 1.10, 0.00
-6, 1.12, 0.00
-5, 1.12, 0.00
-4, 1.10, 0.00
-3, 1.10, 0.00
-2, 1.12, 0.00
-1, 1.12, 0.00
0, 1.10, 0.00
-29, 1.10, 0.00
-28, 1.12, 0.00
-27, 1.12, 0.00
-26, 1.10, 0.00
-25, 1.10, 0.00
-24, 1.12, 0.00
-23, 1.12, 0.00
-22, 1.10, 0.00
-21, 1.10, 0.00
-20, 1.12, 0.00
-19, 1.12, 0.00
-18, 1.10, 0.00
-17, 1.10, 0.00
-16, 1.12, 0.00
-15, 1.12, 0.00
-14, 1.10, 0.00
-13, 1.10, 0.00
-12, 1.12, 0.00
-11, 1.12, 0.00
-10, 1.10, 0.00
-9, 1.10, 0.00
-8, 1.12, 0.00
-7, 1.12, 0.00
-6, 1.10, 0.00
-5, 1.10, 0.00
-4, 1.12, 0.00
-3, 1.12, 0.00
-2, 1.10, 0.00
-1, 1.10, 0.00
0, 1.12, 0.00
-29, 1.12, 0.00
-28, 1.10, 0.00
-27, 1.10, 0.00
-26, 1.12, 0.00
-25, 1.12, 0.00
-24, 1.10, 0.00
-23, 1.10, 0.00
-22, 1.12, 0.00
-21, 1.12, 0.00
-20, 1.10, 0.00
-19, 1.10, 0.00
-18, 1.12, 0.00
-17, 1.12, 0.00
-16, 1.10, 0.00
-15, 1.10, 0.00
-14, 1.12, 0.00
-13, 1.12, 0.00
-12, 1.10, 0.00
-11, 1.10, 0.00
-10, 1.12, 0.00
-9, 1.12, 0.00
-8, 1.10, 0.00
-7, 1.10, 0.00
-6, 1.12, 0.00
-5, 1.12, 0.00
-4, 1.10, 0.00
-3, 1.10, 0.00
-2, 1.12, 0.00
-1, 1.12, 0.00
0, 1.10, 0.00
-29, 1.10, 0.00
-28, 1.12, 0.00
-27, 1.12, 0.00
-26, 1.10, 0.00
-25, 1.10, 0.00
-24, 1.12, 0.00
-23, 1.12, 0.00
-22, 1.10, 0.00
-21, 1.10, 0.00
-20, 1.12, 0.00
-19, 1.12, 0.00
-18, 1.10, 0.00
-17, 1.10, 0.00
-16, 1.12, 0.00
-15, 1.12, 0.00
-14, 1.10, 0.00
-13, 1.10, 0.00
-12, 1.12, 0.00
-11, 1.12, 0.00
-10, 1.10, 0.00
-9, 1.10, 0.00
-8, 1.12, 0.00
-7, 1.12, 0.00
-6, 1.10, 0.00
-5, 1.10, 0.00
-4, 1.12, 0.00
-3, 1.12, 0.00
-2, 1.10, 0.00
-1, 1.10, 0.00
0, 1.12, 0.00
-29, 1.12, 0.00
-28, 1.10, 0.00
-27, 1.10, 0.00
-26, 1.12, 0.00
-25, 1.12, 0.00
-24, 1.10, 0.00
-23, 1.10, 0.00
-22, 1.12, 0.00
-21, 1.12, 0.00
-20, 1.10, 0.00
-19, 1.10, 0.00
-18, 1.12, 0.00
-17, 1.12, 0.00
-16, 1.10, 0.00
-15, 1.10, 0.00
-14, 1.12, 0.00
-13, 1.12, 0.00
-12, 1.10, 0.00
-11, 1.10, 0.00
-10, 1.12, 0.00
-9, 1.12, 0.00
-8, 1.10, 0.00
-7, 1.10, 0.00
-6, 1.12, 0.00
-5, 1.12, 0.00
-4, 1.10, 0.00
-3, 1.10, 0.00
-2, 1.12, 0.00
-1, 1.12, 0.00
0, 1.10, 0.00
-29, 1.10, 0.00
-28, 1.12, 0.00
-27, 1.12, 0.00
-26, 1.10, 0.00
-25, 1.10, 0.00
-24, 1.12, 0.00
-23, 1.12, 0.00
-22, 1.10, 0.00
-21, 1.10, 0.00
-20, 1.12, 0.00
-19, 1.12, 0.00
-18, 1.10, 0.00
-17, 1.10, 0.00
-16, 1.12, 0.00
-15, 1.12, 0.00
-14, 1.10, 0.00
-13, 1.10, 0.00
-12, 1.12, 0.00
-11, 1.12, 0.00
-10, 1.10, 0.00
-9, 1.10, 0.00
-8, 1.12, 0.00
-7, 1.12, 0.00
-6, 1.10, 0.00
-5, 1.10, 0.00
-4, 1.12, 0.00
-3, 1.12, 0.00
-2, 1.10, 0.00
-1, 1.10, 0.00
0, 1.12, 0.00
-29, 1.12, 0.00
-28, 1.10, 0.00
-27, 1.10, 0.00
-26, 1.12, 0.00
-25, 1.12, 0.00
-24, 1.10, 0.00
-23, 1.10, 0.00
-22, 1.12, 0.00
-21, 1.12, 0.00
-20, 1.10, 0.00
-19, 1.10, 0.00
-18, 1.12, 0.00
-17, 1.12, 0.00
-16, 1.10, 0.00
-15, 1.10, 0.00
-14, 1.12, 0.00
-13, 1.12, 0.00
-12, 1.10, 0.00
-11, 1.10, 0.00
-10, 1.12, 0.00
-9, 1.12, 0.00
-8, 1.10, 0.00
-7, 1.10, 0.00
-6, 1.12, 0.00
-5, 1.12, 0.00
-4, 1.10, 0.00
-3, 1.10, 0.00
-2, 1.12, 0.00
-1, 1.12, 0.00
0, 1.10, 0.00
-29, 1.10, 0.00
-28, 1.12, 0.00
-27, 1.12, 0.00
-26, 1.10, 0.00
-25, 1.10, 0.00
-24, 1.12, 0.00
-23, 1.12, 0.00
-22, 1.10, 0.00
-21, 1.10, 0.00
-20, 1.12, 0.00
-19, 1.12, 0.00
-18, 1.10, 0.00
-17, 1.10, 0.00
-16, 1.12, 0.00
-15, 1.12, 0.00
-14, 1.10, 0.00
-13, 1.10, 0.00
-12, 1.12, 0.00
-11, 1.12, 0.00
-10, 1.10, 0.00
-9, 1.10, 0.00
-8, 1.12, 0.00
-7, 1.12, 0.00
-6, 1.10, 0.00
-5, 1.10, 0.00
-4, 1.12, 0.00
-3, 1.12, 0.00
-2, 1.10, 0.00
-1, 1.10, 0.00
0, 1.12, 0.00
-29, 1.12, 0.00
-28, 1.10, 0.00
-27, 1.10, 0.00
-26, 1.12, 0.00
-25, 1.12, 0.00
-24, 1.10, 0.00
-23, 1.10, 0.00
-22, 1.12, 0.00
-21, 1.12, 0.00
-20, 1.10, 0.00
-19, 1.10, 0.00
-18, 1.12, 0.00
-17, 1.12, 0.00
-16, 1.10, 0.00
-15, 1.10, 0.00
-14, 1.12, 0.00
-13, 341.56, 0.00
-12, 961.10, 0.00
-11, 1049.48, 0.00
-10, 1388.22, 0.00
-9, 1863.02, 0.00
-8, 2314.66, 0.00
-7, 2574.81, 0.00
-6, 2931.56, 0.00
-5, 3242.32, 0.00
-4, 3537.59, 0.00
-3, 3832.03, 0.00
-2, 4169.61, 0.00
-1, 4436.89, 0.00
0, 4624.84, 0.00
-29, 4901.71, 0.00
-28, 5191.26, 0.00
-27, 5451.63, 0.00
-26, 5575.17, 0.00
-25, 5829.02, 0.00
-24, 6053.66, 0.00
-23, 6305.43, 0.00
-22, 6386.88, 0.00
-21, 6594.84, 0.00
-20, 6758.36, 0.00
-19, 6993.93, 0.00
-18, 7045.65, 0.00
-17, 7211.16, 0.00
-16, 7328.24, 0.00
-15, 7519.37, 0.00
-14, 7567.38, 0.00
-13, 7680.86, 0.00
-12, 7767.07, 0.00
-11, 7902.99, 0.00
-10, 7953.00, 0.00
-9, 8015.42, 0.00
-8, 8092.85, 0.00
-7, 8172.24, 0.00
-6, 8236.66, 0.00
-5, 8253.20, 0.00
-4, 8327.90, 0.00
-3, 8355.82, 0.00
-2, 8403.79, 0.00
-1, 8480.18, 0.00
0, 8463.80, 0.00
-29, 8538.28, 0.00
-28, 8495.74, 0.00
-27, 8560.09, 0.00
-26, 8515.25, 0.00
-25, 8578.35, 0.00
-24, 8523.57, 0.00
-23, 8570.64, 0.00
-22, 8519.86, 0.00
-21, 8555.40, 0.00
-20, 8502.31, 0.00
-19, 8514.54, 0.00
-18, 8471.98, 0.00
-17, 8466.33, 0.00
-16, 8396.92, 0.00
-15, 8368.80, 0.00
-14, 8325.38, 0.00
-13, 8305.21, 0.00
-12, 8234.96, 0.00
-11, 8223.72, 0.00
-10, 8144.28, 0.00
-9, 8139.41, 0.00
-8, 8037.49, 0.00
-7, 8036.77, 0.00
-6, 7928.43, 0.00
-5, 7927.87, 0.00
-4, 7807.84, 0.00
-3, 7801.90, 0.00
-2, 7684.73, 0.00
-1, 7677.51, 0.00
0, 7556.95, 0.00
-29, 7536.76, 0.00
-28, 7424.85, 0.00
-27, 7394.69, 0.00
-26, 7286.56, 0.00
-25, 7236.89, 0.00
-24, 7147.10, 0.00
-23, 7084.21, 0.00
-22, 7001.62, 0.00
-21, 6919.16, 0.00
-20, 6851.32, 0.00
-19, 6757.80, 0.00
-18, 6706.42, 0.00
-17, 6591.13, 0.00
-16, 6531.31, 0.00
-15, 6415.91, 0.00
-14, 6391.99, 0.00
-13, 6240.96, 0.00
-12, 6219.35, 0.00
-11, 6126.32, 0.00
-10, 6117.87, 0.00
-9, 5975.38, 0.00
-8, 5952.09, 0.00
-7, 5836.78, 0.00
-6, 5814.60, 0.00
-5, 5692.16, 0.00
-4, 5660.60, 0.00
-3, 5552.80, 0.00
-2, 5508.52, 0.00
-1, 5409.19, 0.00
0, 5354.54, 0.00
-29, 5266.47, 0.00
-28, 5191.44, 0.00
-27, 5113.70, 0.00
-26, 5031.42, 0.00
-25, 4964.79, 0.00
-24, 4858.31, 0.00
-23, 4804.44, 0.00
-22, 4692.48, 0.00
-21, 4646.10, 0.00
-20, 4514.45, 0.00
-19, 4473.79, 0.00
-18, 4348.44, 0.00
-17, 4317.86, 0.00
-16, 4177.03, 0.00
-15, 4142.63, 0.00
-14, 4009.88, 0.00
-13, 3976.64, 0.00
-12, 3837.79, 0.00
-11, 3793.34, 0.00
-10, 3672.99, 0.00
-9, 3627.89, 0.00
-8, 3508.93, 0.00
-7, 3449.95, 0.00
-6, 3350.86, 0.00
-5, 3282.60, 0.00
-4, 3194.31, 0.00
-3, 3113.87, 0.00
-2, 3042.99, 0.00
-1, 2949.71, 0.00
0, 2892.29, 0.00
-29, 2785.70, 0.00
-28, 2738.00, 0.00
-27, 2621.70, 0.00
-26, 2584.76, 0.00
-25, 2461.78, 0.00
-24, 2432.50, 0.00
-23, 2302.86, 0.00
-22, 2275.90, 0.00
-21, 2143.35, 0.00
-20, 2113.78, 0.00
-19, 1986.76, 0.00
-18, 1955.29, 0.00
-17, 1834.12, 0.00
-16, 1797.57, 0.00
-15, 1684.49, 0.00
-14, 1640.35, 0.00
-13, 1538.29, 0.00
-12, 1478.99, 0.00
-11, 1389.07, 0.00
-10, 1317.97, 0.00
-9, 1243.23, 0.00
-8, 1163.12, 0.00
-7, 1010.59, 0.00
-6, 962.53, 0.00
-5, 856.74, 0.00
-4, 825.18, 0.00
-3, 713.45, 0.00
-2, 685.73, 0.00
-1, 568.72, 0.00
0, 549.14, 0.00
-29, 431.63, 0.00
-28, 414.18, 0.00
-27, 295.91, 0.00
-26, 278.17, 0.00
-25, 166.63, 0.00
-24, 146.07, 0.00
-23, 40.41, 0.00
-22, 11.53, 0.00
-21, -83.10, 0.00
-20, -119.05, 0.00
-19, -198.55, 0.00
-18, -246.74, 0.00
-17, -313.51, 0.00
-16, -372.34, 0.00
-15, -424.82, 0.00
-14, -497.04, 0.00
-13, -534.72, 0.00
-12, -616.89, 0.00
-11, -639.80, 0.00
-10, -729.63, 0.00
-9, -741.43, 0.00
-8, -835.66, 0.00
-7, -839.62, 0.00
-6, -939.87, 0.00
-5, -939.22, 0.00
-4, -1039.94, 0.00
-3, -1038.01, 0.00
-2, -1134.80, 0.00
-1, -1133.93, 0.00
0, -1224.52, 0.00
-29, -1227.56, 0.00
-28, -1310.97, 0.00
-27, -1323.69, 0.00
-26, -1395.55, 0.00
-25, -1418.24, 0.00
-24, -1472.13, 0.00
-23, -1504.76, 0.00
-22, -1544.75, 0.00
-21, -1592.58, 0.00
-20, -1618.96, 0.00
-19, -1675.64, 0.00
-18, -1691.74, 0.00
-17, -1759.60, 0.00
-16, -1758.55, 0.00
-15, -1833.98, 0.00
-14, -1909.60, 0.00
-13, -1896.28, 0.00
-12, -1981.95, 0.00
-11, -1962.82, 0.00
-10, -2046.61, 0.00
-9, -2030.12, 0.00
-8, -2109.78, 0.00
-7, -2096.26, 0.00
-6, -2168.68, 0.00
-5, -2160.88, 0.00
-4, -2221.54, 0.00
-3, -2221.81, 0.00
-2, -2269.13, 0.00
-1, -2282.25, 0.00
0, -2317.70, 0.00
-29, -2341.84, 0.00
-28, -2362.58, 0.00
-27, -2399.62, 0.00
-26, -2404.94, 0.00
-25, -2456.57, 0.00
-24, -2451.76, 0.00
-23, -2508.85, 0.00
-22, -2491.59, 0.00
-21, -2559.32, 0.00
-20, -2533.77, 0.00
-19, -2603.40, 0.00
-18, -2571.32, 0.00
-17, -2641.08, 0.00
-16, -2609.21, 0.00
-15, -2676.33, 0.00
-14, -2645.40, 0.00
-13, -2708.81, 0.00
-12, -2680.18, 0.00
-11, -2736.61, 0.00
-10, -2722.35, 0.00
-9, -2763.37, 0.00
-8, -2756.30, 0.00
-7, -2785.09, 0.00
-6, -2789.01, 0.00
-5, -2805.55, 0.00
-4, -2826.67, 0.00
-3, -2829.35, 0.00
-2, -2860.91, 0.00
-1, -2847.23, 0.00
0, -2887.87, 0.00
-29, -2862.48, 0.00
-28, -2913.64, 0.00
-27, -2880.13, 0.00
-26, -2936.06, 0.00
-25, -2891.64, 0.00
-24, -2952.73, 0.00
-23, -2908.03, 0.00
-22, -2967.55, 0.00
-21, -2923.61, 0.00
-20, -2936.59, 0.00
-19, -2984.61, 0.00
-18, -2951.75, 0.00
-17, -2994.04, 0.00
-16, -2971.42, 0.00
-15, -3000.48, 0.00
-14, -2990.24, 0.00
-13, -3003.90, 0.00
-12, -3006.06, 0.00
-11, -3002.91, 0.00
-10, -3018.42, 0.00
-9, -3005.01, 0.00
-8, -3033.33, 0.00
-7, -3005.75, 0.00
-6, -3044.20, 0.00
-5, -3005.55, 0.00
-4, -3050.50, 0.00
-3, -3003.20, 0.00
-2, -3055.17, 0.00
-1, -3001.19, 0.00
0, -3051.10, 0.00
-29, -3000.59, 0.00
-28, -2999.65, 0.00
-27, -3043.64, 0.00
-26, -2998.69, 0.00
-25, -3034.43, 0.00
-24, -2995.94, 0.00
-23, -3022.89, 0.00
-22, -2997.82, 0.00
-21, -3011.85, 0.00
-20, -2998.02, 0.00
-19, -2971.84, 0.00
-18, -2931.34, 0.00
-17, -2905.68, 0.00
-16, -2922.67, 0.00
-15, -2883.22, 0.00
-14, -2891.40, 0.00
-13, -2840.37, 0.00
-12, -2876.42, 0.00
-11, -2823.87, 0.00
-10, -2864.31, 0.00
-9, -2798.51, 0.00
-8, -2842.54, 0.00
-7, -2771.97, 0.00
-6, -2824.75, 0.00
-5, -2759.50, 0.00
-4, -2795.60, 0.00
-3, -2721.57, 0.00
-2, -2760.22, 0.00
-1, -2703.64, 0.00
0, -2724.52, 0.00
-29, -2669.71, 0.00
-28, -2684.27, 0.00
-27, -2648.77, 0.00
-26, -2646.13, 0.00
-25, -2624.16, 0.00
-24, -2609.28, 0.00
-23, -2606.77, 0.00
-22, -2574.76, 0.00
-21, -2583.82, 0.00
-20, -2543.14, 0.00
-19, -2567.57, 0.00
-18, -2510.01, 0.00
-17, -2545.75, 0.00
-16, -2484.35, 0.00
-15, -2530.66, 0.00
-14, -2461.08, 0.00
-13, -2509.74, 0.00
-12, -2439.29, 0.00
-11, -2492.26, 0.00
-10, -2423.98, 0.00
-9, -2469.78, 0.00
-8, -2408.11, 0.00
-7, -2448.21, 0.00
-6, -2399.62, 0.00
-5, -2430.22, 0.00
-4, -2394.12, 0.00
-3, -2411.17, 0.00
-2, -2386.14, 0.00
-1, -2383.10, 0.00
0, -2374.76, 0.00
-29, -2355.49, 0.00
-28, -2362.67, 0.00
-27, -2325.72, 0.00
-26, -2350.58, 0.00
-25, -2303.50, 0.00
-24, -2337.52, 0.00
-23, -2276.66, 0.00
-22, -2323.51, 0.00
-21, -2256.86, 0.00
-20, -2309.58, 0.00
-19, -2239.29, 0.00
-18, -2293.65, 0.00
-17, -2219.57, 0.00
-16, -2273.44, 0.00
-15, -2205.83, 0.00
-14, -2254.46, 0.00
-13, -2196.64, 0.00
-12, -2234.39, 0.00
-11, -2187.23, 0.00
-10, -2211.19, 0.00
-9, -2177.98, 0.00
-8, -2187.79, 0.00
-7, -2175.09, 0.00
-6, -2168.32, 0.00
-5, -2165.30, 0.00
-4, -2142.01, 0.00
-3, -2163.74, 0.00
-2, -2123.64, 0.00
-1, -2154.71, 0.00
0, -2105.20, 0.00
-29, -2152.47, 0.00
-28, -2091.30, 0.00
-27, -2143.49, 0.00
-26, -2074.22, 0.00
-25, -2133.21, 0.00
-24, -2063.40, 0.00
-23, -2118.97, 0.00
-22, -2047.06, 0.00
-21, -2101.73, 0.00
-20, -2036.82, 0.00
-19, -2080.97, 0.00
-18, -2029.36, 0.00
-17, -2063.36, 0.00
-16, -2023.93, 0.00
-15, -2039.80, 0.00
-14, -2000.68, 0.00
-13, -1981.59, 0.00
-12, -1990.31, 0.00
-11, -1958.35, 0.00
-10, -1978.76, 0.00
-9, -1928.66, 0.00
-8, -1967.15, 0.00
-7, -1902.58, 0.00
-6, -1947.04, 0.00
-5, -1874.75, 0.00
-4, -1932.51, 0.00
-3, -1856.51, 0.00
-2, -1911.92, 0.00
-1, -1888.88, 0.00
0, -1813.58, 0.00
-29, -1865.25, 0.00
-28, -1802.58, 0.00
-27, -1840.44, 0.00
-26, -1785.97, 0.00
-25, -1810.36, 0.00
-24, -1773.54, 0.00
-23, -1782.04, 0.00
-22, -1763.87, 0.00
-21, -1757.07, 0.00
-20, -1756.67, 0.00
-19, -1732.73, 0.00
-18, -1746.41, 0.00
-17, -1710.00, 0.00
-16, -1745.25, 0.00
-15, -1689.88, 0.00
-14, -1737.31, 0.00
-13, -1671.15, 0.00
-12, -1726.96, 0.00
-11, -1651.44, 0.00
-10, -1713.80, 0.00
-9, -1637.67, 0.00
-8, -1702.00, 0.00
-7, -1629.78, 0.00
-6, -1685.90, 0.00
-5, -1616.86, 0.00
-4, -1667.04, 0.00
-3, -1610.42, 0.00
-2, -1647.93, 0.00
-1, -1606.06, 0.00
0, -1631.12, 0.00
-29, -1605.35, 0.00
-28, -1611.76, 0.00
-27, -1603.34, 0.00
-26, -1589.97, 0.00
-25, -1599.31, 0.00
-24, -1569.87, 0.00
-23, -1594.39, 0.00
-22, -1548.93, 0.00
-21, -1596.96, 0.00
-20, -1538.58, 0.00
-19, -1593.90, 0.00
-18, -1526.22, 0.00
-17, -1588.45, 0.00
-16, -1515.38, 0.00
-15, -1580.78, 0.00
-14, -1506.19, 0.00
-13, -1572.47, 0.00
-12, -1501.66, 0.00
-11, -1559.57, 0.00
-10, -1496.52, 0.00
-9, -1542.52, 0.00
-8, -1492.25, 0.00
-7, -1524.93, 0.00
-6, -1491.35, 0.00
-5, -1509.26, 0.00
-4, -1495.02, 0.00
-3, -1492.02, 0.00
-2, -1493.57, 0.00
-1, -1475.91, 0.00
0, -1496.36, 0.00
-29, -1457.29, 0.00
-28, -1489.74, 0.00
-27, -1436.26, 0.00
-26, -1485.41, 0.00
-25, -1422.17, 0.00
-24, -1481.83, 0.00
-23, -1409.72, 0.00
-22, -1475.97, 0.00
-21, -1398.95, 0.00
-20, -1463.32, 0.00
-19, -1388.18, 0.00
-18, -1449.47, 0.00
-17, -1380.56, 0.00
-16, -1435.70, 0.00
-15, -1378.25, 0.00
-14, -1420.32, 0.00
-13, -1375.28, 0.00
-12, -1400.78, 0.00
-11, -1371.32, 0.00
-10, -1379.91, 0.00
-9, -1370.32, 0.00
-8, -1358.83, 0.00
-7, -1366.97, 0.00
-6, -1338.11, 0.00
-5, -1361.69, 0.00
-4, -1314.57, 0.00
-3, -1353.82, 0.00
-2, -1292.29, 0.00
-1, -1343.88, 0.00
0, -1269.78, 0.00
-29, -1326.93, 0.00
-28, -1242.44, 0.00
-27, -1306.62, 0.00
-26, -1227.18, 0.00
-25, -1288.00, 0.00
-24, -1213.14, 0.00
-23, -1272.62, 0.00
-22, -1205.47, 0.00
-21, -1251.97, 0.00
-20, -1196.96, 0.00
-19, -1225.21, 0.00
-18, -1183.66, 0.00
-17, -1198.79, 0.00
-16, -1174.67, 0.00
-15, -1173.15, 0.00
-14, -1171.07, 0.00
-13, -1149.26, 0.00
-12, -1161.75, 0.00
-11, -1119.13, 0.00
-10, -1150.91, 0.00
-9, -1096.42, 0.00
-8, -1142.87, 0.00
-7, -1076.19, 0.00
-6, -1132.05, 0.00
-5, -1053.77, 0.00
-4, -1117.74, 0.00
-3, -1038.86, 0.00
-2, -1108.33, 0.00
-1, -1030.57, 0.00
0, -1091.28, 0.00
-29, -1020.13, 0.00
-28, -1070.22, 0.00
-27, -1009.45, 0.00
-26, -1052.48, 0.00
-25, -1003.91, 0.00
-24, -1034.98, 0.00
-23, -1008.82, 0.00
-22, -1015.91, 0.00
-21, -1002.01, 0.00
-20, -993.45, 0.00
-19, -1001.43, 0.00
-18, -971.67, 0.00
-17, -952.47, 0.00
-16, -992.93, 0.00
-15, -931.98, 0.00
-14, -985.38, 0.00
-13, -913.56, 0.00
-12, -896.42, 0.00
-11, -964.34, 0.00
-10, -883.41, 0.00
-9, -950.69, 0.00
-8, -875.45, 0.00
-7, -932.98, 0.00
-6, -866.67, 0.00
-5, -916.73, 0.00
-4, -864.14, 0.00
-3, -902.50, 0.00
-2, -865.01, 0.00
-1, -883.47, 0.00
0, -860.47, 0.00
-29, -861.28, 0.00
-28, -857.73, 0.00
-27, -841.52, 0.00
-26, -856.85, 0.00
-25, -818.61, 0.00
-24, -852.94, 0.00
-23, -851.36, 0.00
-22, -788.52, 0.00
-21, -850.46, 0.00
-20, -774.64, 0.00
-19, -841.39, 0.00
-18, -766.02, 0.00
-17, -834.26, 0.00
-16, -754.04, 0.00
-15, -821.20, 0.00
-14, -750.62, 0.00
-13, -808.78, 0.00
-12, -746.30, 0.00
-11, -794.20, 0.00
-10, -747.76, 0.00
-9, -776.95, 0.00
-8, -747.20, 0.00
-7, -761.30, 0.00
-6, -748.29, 0.00
-5, -742.06, 0.00
-4, -749.72, 0.00
-3, -726.07, 0.00
-2, -751.71, 0.00
-1, -708.86, 0.00
0, -750.75, 0.00
-29, -693.51, 0.00
-28, -749.21, 0.00
-27, -680.36, 0.00
-26, -744.85, 0.00
-25, -669.77, 0.00
-24, -739.98, 0.00
-23, -665.30, 0.00
-22, -736.67, 0.00
-21, -664.43, 0.00
-20, -726.72, 0.00
-19, -660.58, 0.00
-18, -715.05, 0.00
-17, -659.35, 0.00
-16, -701.22, 0.00
-15, -661.84, 0.00
-14, -684.28, 0.00
-13, -663.06, 0.00
-12, -671.47, 0.00
-11, -671.98, 0.00
-10, -657.36, 0.00
-9, -674.44, 0.00
-8, -643.24, 0.00
-7, -677.37, 0.00
-6, -628.17, 0.00
-5, -677.03, 0.00
-4, -614.36, 0.00
-3, -677.59, 0.00
-2, -608.19, 0.00
-1, -677.28, 0.00
0, -597.86, 0.00
-29, -667.80, 0.00
-28, -593.35, 0.00
-27, -664.20, 0.00
-26, -591.45, 0.00
-25, -655.29, 0.00
-24, -592.25, 0.00
-23, -641.18, 0.00
-22, -598.67, 0.00
-21, -633.02, 0.00
-20, -598.51, 0.00
-19, -609.98, 0.00
-18, -597.48, 0.00
-17, -596.55, 0.00
-16, -604.68, 0.00
-15, -583.49, 0.00
-14, -608.15, 0.00
-13, -566.42, 0.00
-12, -608.93, 0.00
-11, -553.97, 0.00
-10, -610.27, 0.00
-9, -610.96, 0.00
-8, -539.39, 0.00
-7, -611.77, 0.00
-6, -534.61, 0.00
-5, -607.72, 0.00
-4, -535.70, 0.00
-3, -602.67, 0.00
-2, -535.19, 0.00
-1, -589.84, 0.00
0, -537.09, 0.00
-29, -579.09, 0.00
-28, -541.52, 0.00
-27, -569.34, 0.00
-26, -554.08, 0.00
-25, -539.39, 0.00
-24, -559.26, 0.00
-23, -527.23, 0.00
-22, -562.30, 0.00
-21, -518.09, 0.00
-20, -566.24, 0.00
-19, -497.01, 0.00
-18, -530.99, 0.00
-17, -492.68, 0.00
-16, -551.64, 0.00
-15, -474.66, 0.00
-14, -425.02, 0.00
-13, -428.06, 0.00
-12, -489.86, 0.00
-11, -430.67, 0.00
-10, -265.00, 0.00
-9, -216.43, 0.00
-8, -333.53, 0.00
-7, -303.54, 0.00
-6, -88.62, 0.00
-5, 25.88, 0.00
-4, -27.94, 0.00
-3, -73.09, 0.00
-2, 150.96, 0.00
-1, 240.57, 0.00
0, 331.45, 0.00
-29, 293.70, 0.00
-28, 458.21, 0.00
-27, 483.74, 0.00
-26, 647.15, 0.00
-25, 726.54, 0.00
-24, 814.83, 0.00
-23, 786.74, 0.00
-22, 1091.99, 0.00
-21, 1117.90, 0.00
-20, 1107.10, 0.00
-19, 1153.89, 0.00
-18, 1389.18, 0.00
-17, 1378.28, 0.00
-16, 1416.12, 0.00
-15, 1381.49, 0.00
-14, 1628.59, 0.00
-13, 1592.67, 0.00
-12, 1675.89, 0.00
-11, 1594.91, 0.00
-10, 1823.23, 0.00
-9, 1779.09, 0.00
-8, 1884.03, 0.00
-7, 1795.47, 0.00
-6, 1977.44, 0.00
-5, 1942.61, 0.00
-4, 2033.70, 0.00
-3, 1966.82, 0.00
-2, 2088.01, 0.00
-1, 2083.56, 0.00
0, 2139.13, 0.00
-29, 2121.43, 0.00
-28, 2173.66, 0.00
-27, 2218.66, 0.00
-26, 2223.98, 0.00
-25, 2260.34, 0.00
-24, 2240.23, 0.00
-23, 2330.21, 0.00
-22, 2286.40, 0.00
-21, 2368.28, 0.00
-20, 2293.96, 0.00
-19, 2413.41, 0.00
-18, 2330.91, 0.00
-17, 2442.60, 0.00
-16, 2341.19, 0.00
-15, 2469.51, 0.00
-14, 2380.01, 0.00
-13, 2494.86, 0.00
-12, 2393.47, 0.00
-11, 2501.41, 0.00
-10, 2422.12, 0.00
-9, 2507.84, 0.00
-8, 2437.86, 0.00
-7, 2505.34, 0.00
-6, 2456.12, 0.00
-5, 2490.14, 0.00
-4, 2467.34, 0.00
-3, 2484.57, 0.00
-2, 2480.46, 0.00
-1, 2445.03, 0.00
0, 2411.17, 0.00
-29, 2423.47, 0.00
-28, 2466.89, 0.00
-27, 2398.12, 0.00
-26, 2396.53, 0.00
-25, 2291.46, 0.00
-24, 2404.27, 0.00
-23, 2304.78, 0.00
-22, 2348.72, 0.00
-21, 2257.75, 0.00
-20, 2303.50, 0.00
-19, 2216.20, 0.00
-18, 2311.89, 0.00
-17, 2209.89, 0.00
-16, 2242.13, 0.00
-15, 2157.19, 0.00
-14, 2253.61, 0.00
-13, 2251.92, 0.00
-12, 2241.83, 0.00
-11, 2160.88, 0.00
-10, 2234.01, 0.00
-9, 2269.39, 0.00
-8, 2262.87, 0.00
-7, 2235.08, 0.00
-6, 2228.09, 0.00
-5, 2293.09, 0.00
-4, 2245.77, 0.00
-3, 2303.77, 0.00
-2, 2237.72, 0.00
-1, 2311.28, 0.00
0, 2216.31, 0.00
-29, 2315.26, 0.00
-28, 2214.07, 0.00
-27, 2301.87, 0.00
-26, 2186.92, 0.00
-25, 2296.78, 0.00
-24, 2186.11, 0.00
-23, 2268.70, 0.00
-22, 2160.74, 0.00
-21, 2252.01, 0.00
-20, 2159.76, 0.00
-19, 2212.73, 0.00
-18, 2138.95, 0.00
-17, 2189.06, 0.00
-16, 2142.17, 0.00
-15, 2154.51, 0.00
-14, 2127.28, 0.00
-13, 2118.79, 0.00
-12, 2124.09, 0.00
-11, 2082.31, 0.00
-10, 2104.62, 0.00
-9, 2036.67, 0.00
-8, 2088.52, 0.00
-7, 2065.01, 0.00
-6, 1955.87, 0.00
-5, 2037.20, 0.00
-4, 1917.96, 0.00
-3, 2000.06, 0.00
-2, 1871.00, 0.00
-1, 1949.90, 0.00
0, 1814.07, 0.00
-29, 1880.63, 0.00
-28, 1762.95, 0.00
-27, 1823.57, 0.00
-26, 1709.37, 0.00
-25, 1742.34, 0.00
-24, 1660.82, 0.00
-23, 1680.83, 0.00
-22, 1612.54, 0.00
-21, 1595.47, 0.00
-20, 1561.65, 0.00
-19, 1525.24, 0.00
-18, 1514.44, 0.00
-17, 1448.48, 0.00
-16, 1465.38, 0.00
-15, 1374.05, 0.00
-14, 1418.33, 0.00
-13, 1321.35, 0.00
-12, 1386.41, 0.00
-11, 1265.06, 0.00
-10, 1342.29, 0.00
-9, 1225.48, 0.00
-8, 1313.72, 0.00
-7, 1185.89, 0.00
-6, 1271.17, 0.00
-5, 1160.23, 0.00
-4, 1247.61, 0.00
-3, 1142.40, 0.00
-2, 1211.62, 0.00
-1, 1125.99, 0.00
0, 1176.10, 0.00
-29, 1115.11, 0.00
-28, 1143.90, 0.00
-27, 1104.80, 0.00
-26, 1095.93, 0.00
-25, 1074.25, 0.00
-24, 1089.31, 0.00
-23, 1031.42, 0.00
-22, 1071.36, 0.00
-21, 992.13, 0.00
-20, 1050.42, 0.00
-19, 947.96, 0.00
-18, 1025.68, 0.00
-17, 910.43, 0.00
-16, 989.09, 0.00
-15, 860.88, 0.00
-14, 948.72, 0.00
-13, 828.02, 0.00
-12, 806.12, 0.00
-11, 886.02, 0.00
-10, 790.83, 0.00
-9, 858.28, 0.00
-8, 782.87, 0.00
-7, 828.65, 0.00
-6, 775.69, 0.00
-5, 798.56, 0.00
-4, 776.63, 0.00
-3, 774.91, 0.00
-2, 784.75, 0.00
-1, 764.97, 0.00
0, 813.56, 0.00
-29, 778.42, 0.00
-28, 851.00, 0.00
-27, 792.55, 0.00
-26, 884.19, 0.00
-25, 804.28, 0.00
-24, 903.39, 0.00
-23, 801.53, 0.00
-22, 902.47, 0.00
-21, 793.26, 0.00
-20, 894.11, 0.00
-19, 787.25, 0.00
-18, 881.71, 0.00
-17, 778.47, 0.00
-16, 860.16, 0.00
-15, 774.24, 0.00
-14, 837.70, 0.00
-13, 766.49, 0.00
-12, 805.42, 0.00
-11, 760.03, 0.00
-10, 771.58, 0.00
-9, 750.35, 0.00
-8, 735.06, 0.00
-7, 745.25, 0.00
-6, 702.72, 0.00
-5, 732.53, 0.00
-4, 667.07, 0.00
-3, 731.95, 0.00
-2, 640.13, 0.00
-1, 705.58, 0.00
0, 595.18, 0.00
-29, 685.59, 0.00
-28, 567.29, 0.00
-27, 657.23, 0.00
-26, 534.36, 0.00
-25, 619.84, 0.00
-24, 496.12, 0.00
-23, 571.87, 0.00
-22, 453.90, 0.00
-21, 510.31, 0.00
-20, 407.11, 0.00
-19, 439.01, 0.00
-18, 354.45, 0.00
-17, 361.05, 0.00
-16, 302.58, 0.00
-15, 277.36, 0.00
-14, 240.71, 0.00
-13, 185.41, 0.00
-12, 179.98, 0.00
-11, 97.12, 0.00
-10, 111.62, 0.00
-9, 3.02, 0.00
-8, 46.02, 0.00
-7, -73.58, 0.00
-6, -13.08, 0.00
-5, -150.67, 0.00
-4, -83.19, 0.00
-3, -222.71, 0.00
-2, -143.86, 0.00
-1, -285.99, 0.00
0, -219.90, 0.00
-29, -348.62, 0.00
-28, -282.44, 0.00
-27, -393.82, 0.00
-26, -354.16, 0.00
-25, -449.96, 0.00
-24, -426.36, 0.00
-23, -505.86, 0.00
-22, -518.85, 0.00
-21, -575.07, 0.00
-20, -615.14, 0.00
-19, -640.82, 0.00
-18, -701.78, 0.00
-17, -698.80, 0.00
-16, -792.12, 0.00
-15, -761.12, 0.00
-14, -861.19, 0.00
-13, -811.26, 0.00
-12, -940.43, 0.00
-11, -872.97, 0.00
-10, -1002.30, 0.00
-9, -924.76, 0.00
-8, -1062.04, 0.00
-7, -981.60, 0.00
-6, -1109.43, 0.00
-5, -1033.48, 0.00
-4, -1153.17, 0.00
-3, -1083.79, 0.00
-2, -1184.91, 0.00
-1, -1134.08, 0.00
0, -1210.79, 0.00
-29, -1178.25, 0.00
-28, -1229.97, 0.00
-27, -1225.32, 0.00
-26, -1246.94, 0.00
-25, -1269.98, 0.00
-24, -1264.28, 0.00
-23, -1311.15, 0.00
-22, -1277.29, 0.00
-21, -1351.30, 0.00
-20, -1295.82, 0.00
-19, -1387.93, 0.00
-18, -1310.73, 0.00
-17, -1420.92, 0.00
-16, -1332.81, 0.00
-15, -1450.92, 0.00
-14, -1356.57, 0.00
-13, -1477.63, 0.00
-12, -1384.24, 0.00
-11, -1501.21, 0.00
-10, -1415.33, 0.00
-9, -1521.30, 0.00
-8, -1449.13, 0.00
-7, -1538.05, 0.00
-6, -1486.66, 0.00
-5, -1550.81, 0.00
-4, -1522.47, 0.00
-3, -1562.61, 0.00
-2, -1560.35, 0.00
-1, -1567.19, 0.00
0, -1593.37, 0.00
-29, -1573.96, 0.00
-28, -1624.10, 0.00
-27, -1576.67, 0.00
-26, -1652.80, 0.00
-25, -1584.29, 0.00
-24, -1674.77, 0.00
-23, -1584.72, 0.00
-22, -1690.08, 0.00
-21, -1588.18, 0.00
-20, -1699.18, 0.00
-19, -1591.62, 0.00
-18, -1703.29, 0.00
-17, -1600.45, 0.00
-16, -1704.57, 0.00
-15, -1612.25, 0.00
-14, -1705.66, 0.00
-13, -1626.98, 0.00
-12, -1701.19, 0.00
-11, -1647.26, 0.00
-10, -1696.74, 0.00
-9, -1667.08, 0.00
-8, -1687.67, 0.00
-7, -1686.37, 0.00
-6, -1676.18, 0.00
-5, -1701.77, 0.00
-4, -1668.47, 0.00
-3, -1721.69, 0.00
-2, -1658.59, 0.00
-1, -1733.13, 0.00
0, -1652.35, 0.00
-29, -1746.21, 0.00
-28, -1647.41, 0.00
-27, -1755.04, 0.00
-26, -1649.02, 0.00
-25, -1762.14, 0.00
-24, -1654.30, 0.00
-23, -1766.75, 0.00
-22, -1662.84, 0.00
-21, -1762.03, 0.00
-20, -1667.48, 0.00
-19, -1748.84, 0.00
-18, -1670.97, 0.00
-17, -1732.46, 0.00
-16, -1679.35, 0.00
-15, -1713.78, 0.00
-14, -1688.18, 0.00
-13, -1698.11, 0.00
-12, -1701.26, 0.00
-11, -1674.91, 0.00
-10, -1703.98, 0.00
-9, -1653.22, 0.00
-8, -1709.10, 0.00
-7, -1632.91, 0.00
-6, -1708.86, 0.00
-5, -1611.27, 0.00
-4, -1696.83, 0.00
-3, -1574.34, 0.00
-2, -1662.03, 0.00
-1, -1524.10, 0.00
0, -1607.07, 0.00
-29, -1468.78, 0.00
-28, -1549.76, 0.00
-27, -1416.72, 0.00
-26, -1482.08, 0.00
-25, -1361.89, 0.00
-24, -1409.39, 0.00
-23, -1309.05, 0.00
-22, -1330.13, 0.00
-21, -1248.37, 0.00
-20, -1242.13, 0.00
-19, -1192.67, 0.00
-18, -1155.29, 0.00
-17, -1131.74, 0.00
-16, -1066.63, 0.00
-15, -1075.05, 0.00
-14, -984.93, 0.00
-13, -1016.67, 0.00
-12, -899.12, 0.00
-11, -952.21, 0.00
-10, -818.68, 0.00
-9, -886.58, 0.00
-8, -738.97, 0.00
-7, -814.70, 0.00
-6, -665.93, 0.00
-5, -747.58, 0.00
-4, -601.78, 0.00
-3, -677.30, 0.00
-2, -543.17, 0.00
-1, -604.46, 0.00
0, -487.16, 0.00
-29, -531.77, 0.00
-28, -441.25, 0.00
-27, -460.58, 0.00
-26, -394.24, 0.00
-25, -386.39, 0.00
-24, -354.28, 0.00
-23, -318.89, 0.00
-22, -316.90, 0.00
-21, -249.42, 0.00
-20, -275.82, 0.00
-19, -188.18, 0.00
-18, -245.60, 0.00
-17, -134.38, 0.00
-16, -204.67, 0.00
-15, -77.65, 0.00
-14, -171.37, 0.00
-13, -34.94, 0.00
-12, -123.99, 0.00
-11, 15.76, 0.00
-10, -84.13, 0.00
-9, 44.03, 0.00
-8, -34.49, 0.00
-7, 84.85, 0.00
-6, 9.43, 0.00
-5, 100.90, 0.00
-4, 55.14, 0.00
-3, 120.65, 0.00
-2, 83.37, 0.00
-1, 111.29, 0.00
0, 107.04, 0.00
-29, 155.01, 0.00
-28, 348.11, 0.00
-27, 376.54, 0.00
-26, 483.22, 0.00
-25, 390.60, 0.00
-24, 345.20, 0.00
-23, 140.61, 0.00
-22, 147.86, 0.00
-21, -58.45, 0.00
-20, -69.42, 0.00
-19, -301.21, 0.00
-18, -307.40, 0.00
-17, -555.33, 0.00
-16, -596.77, 0.00
-15, -872.23, 0.00
-14, -918.46, 0.00
-13, -1178.43, 0.00
-12, -1253.26, 0.00
-11, -1497.88, 0.00
-10, -1589.37, 0.00
-9, -1820.59, 0.00
-8, -1948.85, 0.00
-7, -2142.59, 0.00
-6, -2292.06, 0.00
-5, -2460.28, 0.00
-4, -2646.38, 0.00
-3, -2777.96, 0.00
-2, -2985.66, 0.00
-1, -3095.60, 0.00
0, -3343.75, 0.00
-29, -3424.09, 0.00
-28, -3681.35, 0.00
-27, -3746.78, 0.00
-26, -4034.69, 0.00
-25, -4084.27, 0.00
-24, -4364.76, 0.00
-23, -4406.33, 0.00
-22, -4692.14, 0.00
-21, -4728.80, 0.00
-20, -4995.82, 0.00
-19, -5023.76, 0.00
-18, -5252.77, 0.00
-17, -5292.36, 0.00
-16, -5505.66, 0.00
-15, -5581.12, 0.00
-14, -5762.03, 0.00
-13, -5846.10, 0.00
-12, -5989.73, 0.00
-11, -6110.25, 0.00
-10, -6212.40, 0.00
-9, -6345.97, 0.00
-8, -6412.38, 0.00
-7, -6573.56, 0.00
-6, -6599.58, 0.00
-5, -6776.56, 0.00
-4, -6771.80, 0.00
-3, -6959.33, 0.00
-2, -6931.01, 0.00
-1, -7131.50, 0.00
0, -7088.09, 0.00
-29, -7287.32, 0.00
-28, -7234.50, 0.00
-27, -7427.06, 0.00
-26, -7376.16, 0.00
-25, -7554.13, 0.00
-24, -7510.95, 0.00
-23, -7663.59, 0.00
-22, -7637.63, 0.00
-21, -7764.70, 0.00
-20, -7759.97, 0.00
-19, -7844.84, 0.00
-18, -7863.68, 0.00
-17, -7919.49, 0.00
-16, -7969.49, 0.00
-15, -7982.03, 0.00
-14, -8057.27, 0.00
-13, -8038.85, 0.00
-12, -8144.01, 0.00
-11, -8091.46, 0.00
-10, -8212.25, 0.00
-9, -8135.30, 0.00
-8, -8271.78, 0.00
-7, -8174.10, 0.00
-6, -8315.34, 0.00
-5, -8203.74, 0.00
-4, -8345.42, 0.00
-3, -8232.84, 0.00
-2, -8361.70, 0.00
-1, -8251.86, 0.00
0, -8365.16, 0.00
-29, -8272.04, 0.00
-28, -8359.60, 0.00
-27, -8265.79, 0.00
-26, -8301.75, 0.00
-25, -8280.34, 0.00
-24, -8249.49, 0.00
-23, -8092.45, 0.00
-22, -8041.93, 0.00
-21, -8059.95, 0.00
-20, -8023.81, 0.00
-19, -8089.32, 0.00
-18, -8064.26, 0.00
-17, -7939.18, 0.00
-16, -8104.92, 0.00
-15, -8025.35, 0.00
-14, -8109.70, 0.00
-13, -7960.62, 0.00
-12, -8101.43, 0.00
-11, -7977.02, 0.00
-10, -8089.72, 0.00
-9, -7949.33, 0.00
-8, -8059.99, 0.00
-7, -7939.79, 0.00
-6, -8034.78, 0.00
-5, -7933.06, 0.00
-4, -7996.07, 0.00
-3, -7917.66, 0.00
-2, -7960.75, 0.00
-1, -7920.70, 0.00
0, -7924.59, 0.00
-29, -7937.57, 0.00
-28, -7937.24, 0.00
-27, -7973.22, 0.00
-26, -7909.01, 0.00
-25, -7931.11, 0.00
-24, -7814.88, 0.00
-23, -8019.11, 0.00
-22, -7526.70, 0.00
-21, -7018.69, 0.00
-20, -7037.58, 0.00
-19, -6923.09, 0.00
-18, -6655.37, 0.00
-17, -6250.53, 0.00
-16, -6107.26, 0.00
-15, -5832.04, 0.00
-14, -5708.01, 0.00
-13, -5433.22, 0.00
-12, -5273.07, 0.00
-11, -4930.32, 0.00
-10, -4822.95, 0.00
-9, -4626.63, 0.00
-8, -4486.17, 0.00
-7, -4154.27, 0.00
-6, -4017.57, 0.00
-5, -3873.47, 0.00
-4, -3734.62, 0.00
-3, -3463.31, 0.00
-2, -3284.83, 0.00
-1, -3185.70, 0.00
0, -3040.13, 0.00
-29, -2841.31, 0.00
-28, -2625.37, 0.00
-27, -2557.78, 0.00
-26, -2390.56, 0.00
-25, -2266.82, 0.00
-24, -2028.17, 0.00
-23, -1987.32, 0.00
-22, -1807.23, 0.00
-21, -1727.88, 0.00
-20, -1489.07, 0.00
-19, -1456.93, 0.00
-18, -1276.84, 0.00
-17, -1223.65, 0.00
-16, -1008.96, 0.00
-15, -964.63, 0.00
-14, -803.55, 0.00
-13, -749.28, 0.00
-12, -573.39, 0.00
-11, -507.92, 0.00
-10, -385.59, 0.00
-9, -309.59, 0.00
-8, -189.65, 0.00
-7, -89.30, 0.00
-6, -14.22, 0.00
-5, 93.56, 0.00
-4, 161.13, 0.00
-3, 291.47, 0.00
-2, 324.97, 0.00
-1, 458.59, 0.00
0, 479.42, 0.00
-29, 629.96, 0.00
-28, 629.49, 0.00
-27, 779.96, 0.00
-26, 775.58, 0.00
-25, 929.27, 0.00
-24, 1062.51, 0.00
-23, 1050.69, 0.00
-22, 1185.72, 0.00
-21, 1182.92, 0.00
-20, 1298.97, 0.00
-19, 1307.51, 0.00
-18, 1406.89, 0.00
-17, 1431.16, 0.00
-16, 1510.06, 0.00
-15, 1549.89, 0.00
-14, 1602.96, 0.00
-13, 1662.28, 0.00
-12, 1692.56, 0.00
-11, 1768.81, 0.00
-10, 1775.73, 0.00
-9, 1870.08, 0.00
-8, 1860.85, 0.00
-7, 1967.56, 0.00
-6, 1941.47, 0.00
-5, 2057.99, 0.00
-4, 2021.34, 0.00
-3, 2138.73, 0.00
-2, 2095.41, 0.00
-1, 2212.78, 0.00
0, 2169.28, 0.00
-29, 2279.90, 0.00
-28, 2245.08, 0.00
-27, 2342.60, 0.00
-26, 2315.77, 0.00
-25, 2395.86, 0.00
-24, 2446.24, 0.00
-23, 2453.19, 0.00
-22, 2490.77, 0.00
-21, 2516.34, 0.00
-20, 2535.16, 0.00
-19, 2576.15, 0.00
-18, 2573.11, 0.00
-17, 2635.29, 0.00
-16, 2608.78, 0.00
-15, 2688.00, 0.00
-14, 2646.25, 0.00
-13, 2733.08, 0.00
-12, 2680.51, 0.00
-11, 2775.01, 0.00
-10, 2714.22, 0.00
-9, 2812.05, 0.00
-8, 2745.44, 0.00
-7, 2839.01, 0.00
-6, 2779.62, 0.00
-5, 2866.16, 0.00
-4, 2814.82, 0.00
-3, 2885.81, 0.00
-2, 2848.04, 0.00
-1, 2903.56, 0.00
0, 2881.52, 0.00
-29, 2913.80, 0.00
-28, 2910.51, 0.00
-27, 2924.86, 0.00
-26, 2942.52, 0.00
-25, 2930.07, 0.00
-24, 2965.47, 0.00
-23, 2931.48, 0.00
-22, 2983.20, 0.00
-21, 2933.69, 0.00
-20, 3003.16, 0.00
-19, 2936.17, 0.00
-18, 3014.15, 0.00
-17, 2941.62, 0.00
-16, 3022.74, 0.00
-15, 2943.48, 0.00
-14, 3024.73, 0.00
-13, 2947.19, 0.00
-12, 3023.99, 0.00
-11, 2956.06, 0.00
-10, 3021.51, 0.00
-9, 2962.05, 0.00
-8, 3011.70, 0.00
-7, 2969.29, 0.00
-6, 3002.46, 0.00
-5, 2978.59, 0.00
-4, 2987.15, 0.00
-3, 2983.44, 0.00
-2, 2971.57, 0.00
-1, 2985.52, 0.00
0, 2951.99, 0.00
-29, 2985.34, 0.00
-28, 2932.55, 0.00
-27, 2983.94, 0.00
-26, 2918.65, 0.00
-25, 2982.77, 0.00
-24, 2904.92, 0.00
-23, 2975.04, 0.00
-22, 2886.15, 0.00
-21, 2959.48, 0.00
-20, 2870.88, 0.00
-19, 2942.41, 0.00
-18, 2860.13, 0.00
-17, 2921.31, 0.00
-16, 2849.67, 0.00
-15, 2901.35, 0.00
-14, 2840.64, 0.00
-13, 2874.95, 0.00
-12, 2830.20, 0.00
-11, 2844.53, 0.00
-10, 2822.35, 0.00
-9, 2811.11, 0.00
-8, 2811.54, 0.00
-7, 2782.59, 0.00
-6, 2799.02, 0.00
-5, 2751.81, 0.00
-4, 2790.35, 0.00
-3, 2724.95, 0.00
-2, 2775.86, 0.00
-1, 2697.23, 0.00
0, 2758.07, 0.00
-29, 2670.21, 0.00
-28, 2738.62, 0.00
-27, 2645.95, 0.00
-26, 2714.73, 0.00
-25, 2622.95, 0.00
-24, 2686.93, 0.00
-23, 2603.98, 0.00
-22, 2656.93, 0.00
-21, 2586.41, 0.00
-20, 2626.20, 0.00
-19, 2570.38, 0.00
-18, 2591.53, 0.00
-17, 2556.46, 0.00
-16, 2557.37, 0.00
-15, 2540.70, 0.00
-14, 2518.04, 0.00
-13, 2526.17, 0.00
-12, 2487.59, 0.00
-11, 2515.96, 0.00
-10, 2455.74, 0.00
-9, 2496.00, 0.00
-8, 2420.81, 0.00
-7, 2476.68, 0.00
-6, 2391.86, 0.00
-5, 2458.00, 0.00
-4, 2367.00, 0.00
-3, 2434.95, 0.00
-2, 2339.67, 0.00
-1, 2403.64, 0.00
0, 2312.22, 0.00
-29, 2371.34, 0.00
-28, 2293.13, 0.00
-27, 2338.73, 0.00
-26, 2273.71, 0.00
-25, 2302.21, 0.00
-24, 2256.03, 0.00
-23, 2266.38, 0.00
-22, 2238.91, 0.00
-21, 2226.97, 0.00
-20, 2219.57, 0.00
-19, 2188.39, 0.00
-18, 2207.21, 0.00
-17, 2154.84, 0.00
-16, 2188.75, 0.00
-15, 2121.14, 0.00
-14, 2171.29, 0.00
-13, 2090.63, 0.00
-12, 2154.42, 0.00
-11, 2066.17, 0.00
-10, 2131.84, 0.00
-9, 2038.64, 0.00
-8, 2109.60, 0.00
-7, 2015.72, 0.00
-6, 2081.91, 0.00
-5, 1998.47, 0.00
-4, 2052.56, 0.00
-3, 1978.20, 0.00
-2, 2017.00, 0.00
-1, 1963.11, 0.00
0, 1984.86, 0.00
-29, 1950.39, 0.00
-28, 1952.54, 0.00
-27, 1937.69, 0.00
-26, 1920.82, 0.00
-25, 1928.66, 0.00
-24, 1888.54, 0.00
-23, 1916.66, 0.00
-22, 1856.69, 0.00
-21, 1901.02, 0.00
-20, 1827.19, 0.00
-19, 1889.73, 0.00
-18, 1809.13, 0.00
-17, 1877.03, 0.00
-16, 1786.04, 0.00
-15, 1853.72, 0.00
-14, 1763.80, 0.00
-13, 1838.61, 0.00
-12, 1757.88, 0.00
-11, 1820.91, 0.00
-10, 1744.80, 0.00
-9, 1795.78, 0.00
-8, 1732.55, 0.00
-7, 1767.33, 0.00
-6, 1726.52, 0.00
-5, 1742.65, 0.00
-4, 1719.94, 0.00
-3, 1714.16, 0.00
-2, 1713.73, 0.00
-1, 1685.70, 0.00
0, 1703.09, 0.00
-29, 1655.93, 0.00
-28, 1694.22, 0.00
-27, 1630.98, 0.00
-26, 1687.27, 0.00
-25, 1608.50, 0.00
-24, 1674.21, 0.00
-23, 1585.30, 0.00
-22, 1654.59, 0.00
-21, 1564.40, 0.00
-20, 1635.16, 0.00
-19, 1546.72, 0.00
-18, 1618.06, 0.00
-17, 1539.16, 0.00
-16, 1596.32, 0.00
-15, 1526.47, 0.00
-14, 1566.59, 0.00
-13, 1512.41, 0.00
-12, 1536.12, 0.00
-11, 1502.35, 0.00
-10, 1507.85, 0.00
-9, 1494.37, 0.00
-8, 1477.85, 0.00
-7, 1487.62, 0.00
-6, 1451.72, 0.00
-5, 1478.21, 0.00
-4, 1422.04, 0.00
-3, 1467.01, 0.00
-2, 1395.84, 0.00
-1, 1452.51, 0.00
0, 1369.33, 0.00
-29, 1435.72, 0.00
-28, 1345.71, 0.00
-27, 1419.58, 0.00
-26, 1328.90, 0.00
-25, 1399.38, 0.00
-24, 1313.19, 0.00
-23, 1377.76, 0.00
-22, 1301.68, 0.00
-21, 1351.99, 0.00
-20, 1292.20, 0.00
-19, 1328.77, 0.00
-18, 1283.41, 0.00
-17, 1298.88, 0.00
-16, 1276.24, 0.00
-15, 1269.76, 0.00
-14, 1267.03, 0.00
-13, 1240.23, 0.00
-12, 1256.35, 0.00
-11, 1209.43, 0.00
-10, 1245.66, 0.00
-9, 1180.02, 0.00
-8, 1233.12, 0.00
-7, 1155.03, 0.00
-6, 1219.67, 0.00
-5, 1133.23, 0.00
-4, 1205.32, 0.00
-3, 1116.63, 0.00
-2, 1186.36, 0.00
-1, 1095.75, 0.00
0, 1164.41, 0.00
-29, 1083.88, 0.00
-28, 1143.38, 0.00
-27, 1072.79, 0.00
-26, 1115.06, 0.00
-25, 1063.14, 0.00
-24, 1088.57, 0.00
-23, 1056.99, 0.00
-22, 1063.09, 0.00
-21, 1050.64, 0.00
-20, 1033.75, 0.00
-19, 1042.80, 0.00
-18, 1007.33, 0.00
-17, 1035.87, 0.00
-16, 980.21, 0.00
-15, 1025.32, 0.00
-14, 955.16, 0.00
-13, 1014.68, 0.00
-12, 932.36, 0.00
-11, 1001.22, 0.00
-10, 908.84, 0.00
-9, 981.22, 0.00
-8, 891.61, 0.00
-7, 967.36, 0.00
-6, 883.36, 0.00
-5, 947.04, 0.00
-4, 869.33, 0.00
-3, 922.79, 0.00
-2, 856.00, 0.00
-1, 891.66, 0.00
0, 846.71, 0.00
-29, 864.74, 0.00
-28, 841.65, 0.00
-27, 838.30, 0.00
-26, 837.23, 0.00
-25, 810.83, 0.00
-24, 830.39, 0.00
-23, 787.74, 0.00
-22, 824.73, 0.00
-21, 763.80, 0.00
-20, 817.85, 0.00
-19, 742.35, 0.00
-18, 811.23, 0.00
-17, 726.25, 0.00
-16, 798.07, 0.00
-15, 707.61, 0.00
-14, 781.15, 0.00
-13, 692.28, 0.00
-12, 764.38, 0.00
-11, 684.16, 0.00
-10, 743.11, 0.00
-9, 673.86, 0.00
-8, 722.59, 0.00
-7, 669.17, 0.00
-6, 696.48, 0.00
-5, 665.12, 0.00
-4, 676.74, 0.00
-3, 666.71, 0.00
-2, 652.02, 0.00
-1, 661.08, 0.00
0, 626.39, 0.00
-29, 653.48, 0.00
-28, 599.81, 0.00
-27, 646.66, 0.00
-26, 575.85, 0.00
-25, 637.32, 0.00
-24, 560.51, 0.00
-23, 636.06, 0.00
-22, 549.45, 0.00
-21, 624.06, 0.00
-20, 533.11, 0.00
-19, 608.12, 0.00
-18, 524.66, 0.00
-17, 594.00, 0.00
-16, 518.81, 0.00
-15, 573.28, 0.00
-14, 515.54, 0.00
-13, 555.89, 0.00
-12, 533.20, 0.00
-11, 511.07, 0.00
-10, 508.35, 0.00
-9, 509.33, 0.00
-8, 485.10, 0.00
-7, 508.08, 0.00
-6, 463.62, 0.00
-5, 504.50, 0.00
-4, 446.74, 0.00
-3, 503.85, 0.00
-2, 430.65, 0.00
-1, 501.55, 0.00
0, 417.91, 0.00
-29, 493.17, 0.00
-28, 404.50, 0.00
-27, 482.86, 0.00
-26, 396.61, 0.00
-25, 469.63, 0.00
-24, 391.47, 0.00
-23, 453.79, 0.00
-22, 384.38, 0.00
-21, 430.23, 0.00
-20, 378.71, 0.00
-19, 413.91, 0.00
-18, 382.10, 0.00
-17, 388.52, 0.00
-16, 379.33, 0.00
-15, 368.69, 0.00
-14, 377.99, 0.00
-13, 350.59, 0.00
-12, 384.81, 0.00
-11, 337.33, 0.00
-10, 386.53, 0.00
-9, 320.50, 0.00
-8, 384.03, 0.00
-7, 304.21, 0.00
-6, 378.91, 0.00
-5, 295.80, 0.00
-4, 373.65, 0.00
-3, 285.36, 0.00
-2, 362.34, 0.00
-1, 278.84, 0.00
0, 346.43, 0.00
-29, 273.36, 0.00
-28, 334.49, 0.00
-27, 275.33, 0.00
-26, 320.12, 0.00
-25, 281.74, 0.00
-24, 304.27, 0.00
-23, 285.79, 0.00
-22, 289.03, 0.00
-21, 292.16, 0.00
-20, 271.82, 0.00
-19, 292.20, 0.00
-18, 263.50, 0.00
-17, 337.51, 0.00
-16, 247.52, 0.00
-15, 316.90, 0.00
-14, 262.97, 0.00
-13, 492.32, 0.00
-12, 292.70, 0.00
-11, 389.84, 0.00
-10, 292.09, 0.00
-9, 627.61, 0.00
-8, 403.16, 0.00
-7, 476.00, 0.00
-6, 392.74, 0.00
-5, 732.11, 0.00
-4, 593.08, 0.00
-3, 577.37, 0.00
-2, 579.85, 0.00
-1, 807.93, 0.00
0, 809.16, 0.00
-29, 707.75, 0.00
-28, 825.58, 0.00
-27, 895.08, 0.00
-26, 1011.22, 0.00
-25, 943.67, 0.00
-24, 1170.25, 0.00
-23, 1068.66, 0.00
-22, 1215.29, 0.00
-21, 1181.13, 0.00
-20, 1469.85, 0.00
-19, 1285.78, 0.00
-18, 1415.07, 0.00
-17, 1396.25, 0.00
-16, 1692.34, 0.00
-15, 1518.55, 0.00
-14, 1597.08, 0.00
-13, 1597.37, 0.00
-12, 1843.35, 0.00
-11, 1741.42, 0.00
-10, 1755.73, 0.00
-9, 1790.64, 0.00
-8, 1941.79, 0.00
-7, 1936.87, 0.00
-6, 1880.88, 0.00
-5, 1969.30, 0.00
-4, 2105.78, 0.00
-3, 1986.02, 0.00
-2, 2124.64, 0.00
-1, 2070.33, 0.00
0, 2235.04, 0.00
-29, 2077.46, 0.00
-28, 2251.78, 0.00
-27, 2133.16, 0.00
-26, 2321.09, 0.00
-25, 2151.00, 0.00
-24, 2324.96, 0.00
-23, 2197.49, 0.00
-22, 2365.06, 0.00
-21, 2225.32, 0.00
-20, 2356.86, 0.00
-19, 2267.58, 0.00
-18, 2375.10, 0.00
-17, 2298.41, 0.00
-16, 2352.50, 0.00
-15, 2330.15, 0.00
-14, 2350.22, 0.00
-13, 2357.95, 0.00
-12, 2326.19, 0.00
-11, 2315.55, 0.00
-10, 2405.18, 0.00
-9, 2294.47, 0.00
-8, 2420.47, 0.00
-7, 2280.70, 0.00
-6, 2427.69, 0.00
-5, 2268.70, 0.00
-4, 2430.19, 0.00
-3, 2262.11, 0.00
-2, 2427.38, 0.00
-1, 2256.90, 0.00
0, 2413.23, 0.00
-29, 2256.05, 0.00
-28, 2391.77, 0.00
-27, 2253.70, 0.00
-26, 2357.10, 0.00
-25, 2254.91, 0.00
-24, 2322.75, 0.00
-23, 2250.53, 0.00
-22, 2271.52, 0.00
-21, 2248.97, 0.00
-20, 2233.30, 0.00
-19, 2248.18, 0.00
-18, 2139.89, 0.00
-17, 2127.08, 0.00
-16, 2213.81, 0.00
-15, 2074.93, 0.00
-14, 2167.25, 0.00
-13, 2054.26, 0.00
-12, 2180.90, 0.00
-11, 2014.00, 0.00
-10, 2108.19, 0.00
-9, 2002.29, 0.00
-8, 2129.50, 0.00
-7, 1973.17, 0.00
-6, 2059.98, 0.00
-5, 1959.09, 0.00
-4, 2065.73, 0.00
-3, 1951.15, 0.00
-2, 2031.62, 0.00
-1, 1942.12, 0.00
0, 1989.19, 0.00
-29, 1921.98, 0.00
-28, 1964.90, 0.00
-27, 1942.08, 0.00
-26, 1879.24, 0.00
-25, 1878.02, 0.00
-24, 1865.39, 0.00
-23, 1945.41, 0.00
-22, 1748.53, 0.00
-21, 1867.94, 0.00
-20, 1781.75, 0.00
-19, 1952.85, 0.00
-18, 1730.00, 0.00
-17, 1881.23, 0.00
-16, 1731.92, 0.00
-15, 1935.28, 0.00
-14, 1704.43, 0.00
-13, 1854.99, 0.00
-12, 1733.44, 0.00
-11, 1887.65, 0.00
-10, 1746.03, 0.00
-9, 1867.24, 0.00
-8, 1767.15, 0.00
-7, 1835.61, 0.00
-6, 1775.18, 0.00
-5, 1825.33, 0.00
-4, 1794.73, 0.00
-3, 1765.72, 0.00
-2, 1785.64, 0.00
-1, 1742.61, 0.00
0, 1794.55, 0.00
-29, 1672.45, 0.00
-28, 1766.86, 0.00
-27, 1645.42, 0.00
-26, 1768.85, 0.00
-25, 1588.81, 0.00
-24, 1729.60, 0.00
-23, 1563.26, 0.00
-22, 1725.29, 0.00
-21, 1525.19, 0.00
-20, 1673.59, 0.00
-19, 1502.73, 0.00
-18, 1654.54, 0.00
-17, 1485.90, 0.00
-16, 1596.54, 0.00
-15, 1459.97, 0.00
-14, 1551.95, 0.00
-13, 1453.42, 0.00
-12, 1502.53, 0.00
-11, 1436.86, 0.00
-10, 1438.65, 0.00
-9, 1429.28, 0.00
-8, 1402.24, 0.00
-7, 1432.30, 0.00
-6, 1340.19, 0.00
-5, 1415.51, 0.00
-4, 1307.04, 0.00
-3, 1432.66, 0.00
-2, 1275.10, 0.00
-1, 1416.32, 0.00
0, 1240.03, 0.00
-29, 1411.45, 0.00
-28, 1238.00, 0.00
-27, 1404.74, 0.00
-26, 1198.52, 0.00
-25, 1347.88, 0.00
-24, 1187.35, 0.00
-23, 1341.64, 0.00
-22, 1168.91, 0.00
-21, 1260.95, 0.00
-20, 1148.25, 0.00
-19, 1230.58, 0.00
-18, 1138.46, 0.00
-17, 1152.59, 0.00
-16, 1116.42, 0.00
-15, 1111.06, 0.00
-14, 1049.39, 0.00
-13, 1000.29, 0.00
-12, 1091.90, 0.00
-11, 951.94, 0.00
-10, 1079.72, 0.00
-9, 912.26, 0.00
-8, 1063.81, 0.00
-7, 878.87, 0.00
-6, 1035.33, 0.00
-5, 844.67, 0.00
-4, 1010.79, 0.00
-3, 824.44, 0.00
-2, 970.65, 0.00
-1, 801.27, 0.00
0, 928.89, 0.00
-29, 787.70, 0.00
-28, 881.20, 0.00
-27, 772.88, 0.00
-26, 825.58, 0.00
-25, 762.19, 0.00
-24, 774.51, 0.00
-23, 758.17, 0.00
-22, 719.06, 0.00
-21, 747.04, 0.00
-20, 667.96, 0.00
-19, 743.28, 0.00
-18, 621.22, 0.00
-17, 726.41, 0.00
-16, 573.03, 0.00
-15, 712.19, 0.00
-14, 534.65, 0.00
-13, 690.18, 0.00
-12, 498.24, 0.00
-11, 660.72, 0.00
-10, 468.38, 0.00
-9, 626.14, 0.00
-8, 444.51, 0.00
-7, 583.67, 0.00
-6, 425.04, 0.00
-5, 539.15, 0.00
-4, 412.59, 0.00
-3, 489.75, 0.00
-2, 407.07, 0.00
-1, 443.46, 0.00
0, 403.00, 0.00
-29, 393.41, 0.00
-28, 403.49, 0.00
-27, 351.86, 0.00
-26, 403.90, 0.00
-25, 307.54, 0.00
-24, 403.72, 0.00
-23, 272.96, 0.00
-22, 404.01, 0.00
-21, 242.07, 0.00
-20, 395.54, 0.00
-19, 211.89, 0.00
-18, 380.36, 0.00
-17, 196.87, 0.00
-16, 364.40, 0.00
-15, 177.85, 0.00
-14, 340.80, 0.00
-13, 179.71, 0.00
-12, 323.21, 0.00
-11, 180.62, 0.00
-10, 285.48, 0.00
-9, 184.74, 0.00
-8, 253.25, 0.00
-7, 190.17, 0.00
-6, 205.08, 0.00
-5, 185.81, 0.00
-4, 157.00, 0.00
-3, 190.68, 0.00
-2, 119.13, 0.00
-1, 191.64, 0.00
0, 75.39, 0.00
-29, 192.56, 0.00
-28, 45.84, 0.00
-27, 191.11, 0.00
-26, 15.38, 0.00
-25, 180.54, 0.00
-24, -5.50, 0.00
-23, 168.13, 0.00
-22, -23.92, 0.00
-21, 144.08, 0.00
-20, -33.01, 0.00
-19, 119.67, 0.00
-18, -39.56, 0.00
-17, 83.64, 0.00
-16, -38.78, 0.00
-15, 55.41, 0.00
-14, -32.41, 0.00
-13, 9.50, 0.00
-12, -28.14, 0.00
-11, -27.36, 0.00
-10, -20.32, 0.00
-9, -72.73, 0.00
-8, -18.51, 0.00
-7, -110.57, 0.00
-6, -18.22, 0.00
-5, -151.54, 0.00
-4, -20.25, 0.00
-3, -181.34, 0.00
-2, -25.06, 0.00
-1, -206.02, 0.00
0, -32.52, 0.00
-29, -225.04, 0.00
-28, -51.86, 0.00
-27, -240.30, 0.00
-26, -77.92, 0.00
-25, -252.06, 0.00
-24, -114.80, 0.00
-23, -265.32, 0.00
-22, -161.47, 0.00
-21, -277.52, 0.00
-20, -215.11, 0.00
-19, -294.04, 0.00
-18, -285.59, 0.00
-17, -314.27, 0.00
-16, -349.94, 0.00
-15, -338.14, 0.00
-14, -429.42, 0.00
-13, -368.85, 0.00
-12, -397.44, 0.00
-11, -559.96, 0.00
-10, -421.91, 0.00
-9, -603.21, 0.00
-8, -444.75, 0.00
-7, -640.09, 0.00
-6, -470.19, 0.00
-5, -665.41, 0.00
-4, -496.86, 0.00
-3, -683.32, 0.00
-2, -530.76, 0.00
-1, -691.38, 0.00
0, -560.20, 0.00
-29, -688.46, 0.00
-28, -599.83, 0.00
-27, -686.89, 0.00
-26, -635.44, 0.00
-25, -673.55, 0.00
-24, -667.71, 0.00
-23, -657.30, 0.00
-22, -697.98, 0.00
-21, -639.04, 0.00
-20, -722.39, 0.00
-19, -619.10, 0.00
-18, -742.68, 0.00
-17, -602.33, 0.00
-16, -752.72, 0.00
-15, -582.17, 0.00
-14, -755.51, 0.00
-13, -570.26, 0.00
-12, -747.26, 0.00
-11, -554.21, 0.00
-10, -729.99, 0.00
-9, -697.24, 0.00
-8, -528.48, 0.00
-7, -658.15, 0.00
-6, -528.86, 0.00
-5, -622.14, 0.00
-4, -526.09, 0.00
-3, -567.00, 0.00
-2, -516.71, 0.00
-1, -508.90, 0.00
0, -501.91, 0.00
-29, -451.46, 0.00
-28, -501.75, 0.00
-27, -403.11, 0.00
-26, -494.55, 0.00
-25, -481.64, 0.00
-24, -312.95, 0.00
-23, -471.55, 0.00
-22, -288.58, 0.00
-21, -455.15, 0.00
-20, -251.32, 0.00
-19, -434.74, 0.00
-18, -242.92, 0.00
-17, -405.10, 0.00
-16, -220.81, 0.00
-15, -369.43, 0.00
-14, -222.15, 0.00
-13, -336.08, 0.00
-12, -217.80, 0.00
-11, -293.28, 0.00
-10, -225.13, 0.00
-9, -252.71, 0.00
-8, -231.47, 0.00
-7, -215.69, 0.00
-6, -246.29, 0.00
-5, -181.12, 0.00
-4, -258.25, 0.00
-3, -151.03, 0.00
-2, -270.52, 0.00
-1, -126.98, 0.00
0, -281.77, 0.00
-29, -111.94, 0.00
-28, -286.46, 0.00
-27, -102.59, 0.00
-26, -292.56, 0.00
-25, -104.23, 0.00
-24, -287.60, 0.00
-23, -105.41, 0.00
-22, -278.41, 0.00
-21, -119.47, 0.00
-20, -136.48, 0.00
-19, -241.91, 0.00
-18, -158.27, 0.00
-17, -224.05, 0.00
-16, -185.30, 0.00
-15, -202.28, 0.00
-14, -212.79, 0.00
-13, -183.33, 0.00
-12, -245.09, 0.00
-11, -166.72, 0.00
-10, -275.93, 0.00
-9, -157.76, 0.00
-8, -303.72, 0.00
-7, -153.98, 0.00
-6, -328.93, 0.00
-5, -156.48, 0.00
-4, -352.69, 0.00
-3, -170.57, 0.00
-2, -182.23, 0.00
-1, -372.72, 0.00
0, -206.75, 0.00
-29, -372.16, 0.00
-28, -228.03, 0.00
-27, -259.35, 0.00
-26, -350.36, 0.00
-25, -290.84, 0.00
-24, -339.08, 0.00
-23, -327.36, 0.00
-22, -322.74, 0.00
-21, -310.56, 0.00
-20, -396.70, 0.00
-19, -298.89, 0.00
-18, -426.36, 0.00
-17, -289.57, 0.00
-16, -452.42, 0.00
-15, -288.87, 0.00
-14, -473.79, 0.00
-13, -289.81, 0.00
-12, -489.95, 0.00
-11, -304.48, 0.00
-10, -498.67, 0.00
-9, -499.72, 0.00
-8, -342.36, 0.00
-7, -492.25, 0.00
-6, -358.83, 0.00
-5, -478.53, 0.00
-4, -395.09, 0.00
-3, -466.19, 0.00
-2, -421.35, 0.00
-1, -444.58, 0.00
0, -455.39, 0.00
-29, -425.04, 0.00
-28, -483.83, 0.00
-27, -408.32, 0.00
-26, -512.10, 0.00
-25, -394.24, 0.00
-24, -541.69, 0.00
-23, -390.26, 0.00
-22, -564.07, 0.00
-21, -387.27, 0.00
-20, -585.35, 0.00
-19, -400.32, 0.00
-18, -600.61, 0.00
-17, -415.97, 0.00
-16, -605.93, 0.00
-15, -431.93, 0.00
-14, -607.01, 0.00
-13, -462.55, 0.00
-12, -599.67, 0.00
-11, -487.42, 0.00
-10, -586.69, 0.00
-9, -523.92, 0.00
-8, -570.15, 0.00
-7, -549.96, 0.00
-6, -550.99, 0.00
-5, -587.16, 0.00
-4, -534.65, 0.00
-3, -615.10, 0.00
-2, -518.36, 0.00
-1, -641.94, 0.00
0, -504.41, 0.00
-29, -664.00, 0.00
-28, -495.36, 0.00
-27, -677.19, 0.00
-26, -490.40, 0.00
-25, -683.83, 0.00
-24, -489.68, 0.00
-23, -684.59, 0.00
-22, -498.02, 0.00
-21, -679.16, 0.00
-20, -510.67, 0.00
-19, -665.39, 0.00
-18, -533.80, 0.00
-17, -650.15, 0.00
-16, -553.21, 0.00
-15, -625.40, 0.00
-14, -578.46, 0.00
-13, -601.84, 0.00
-12, -606.54, 0.00
-11, -579.96, 0.00
-10, -632.96, 0.00
-9, -555.64, 0.00
-8, -659.42, 0.00
-7, -539.91, 0.00
-6, -677.86, 0.00
-5, -522.32, 0.00
-4, -693.66, 0.00
-3, -514.00, 0.00
-2, -703.30, 0.00
-1, -509.28, 0.00
0, -705.22, 0.00
-29, -508.84, 0.00
-28, -701.64, 0.00
-27, -522.27, 0.00
-26, -690.69, 0.00
-25, -533.60, 0.00
-24, -671.22, 0.00
-23, -552.56, 0.00
-22, -648.09, 0.00
-21, -571.96, 0.00
-20, -623.46, 0.00
-19, -597.08, 0.00
-18, -595.63, 0.00
-17, -627.32, 0.00
-16, -579.69, 0.00
-15, -656.74, 0.00
-14, -556.16, 0.00
-13, -678.82, 0.00
-12, -702.98, 0.00
-11, -530.00, 0.00
-10, -711.61, 0.00
-9, -519.79, 0.00
-8, -717.78, 0.00
-7, -523.54, 0.00
-6, -719.26, 0.00
-5, -527.75, 0.00
-4, -716.13, 0.00
-3, -549.79, 0.00
-2, -705.64, 0.00
-1, -563.53, 0.00
0, -687.00, 0.00
-29, -593.04, 0.00
-28, -665.46, 0.00
-27, -609.11, 0.00
-26, -634.01, 0.00
-25, -633.45, 0.00
-24, -648.92, 0.00
-23, -570.17, 0.00
-22, -665.28, 0.00
-21, -541.43, 0.00
-20, -676.41, 0.00
-19, -515.30, 0.00
-18, -677.64, 0.00
-17, -492.45, 0.00
-16, -680.19, 0.00
-15, -476.14, 0.00
-14, -669.99, 0.00
-13, -470.97, 0.00
-12, -659.89, 0.00
-11, -469.54, 0.00
-10, -635.88, 0.00
-9, -474.59, 0.00
-8, -609.40, 0.00
-7, -479.96, 0.00
-6, -576.67, 0.00
-5, -491.96, 0.00
-4, -534.56, 0.00
-3, -502.22, 0.00
-2, -498.04, 0.00
-1, -515.39, 0.00
0, -454.43, 0.00
-29, -520.62, 0.00
-28, -418.09, 0.00
-27, -528.89, 0.00
-26, -379.91, 0.00
-25, -529.56, 0.00
-24, -351.86, 0.00
-23, -529.89, 0.00
-22, -335.92, 0.00
-21, -526.90, 0.00
-20, -321.69, 0.00
-19, -513.91, 0.00
-18, -317.62, 0.00
-17, -497.57, 0.00
-16, -318.71, 0.00
-15, -475.89, 0.00
-14, -330.72, 0.00
-13, -446.59, 0.00
-12, -343.14, 0.00
-11, -420.44, 0.00
-10, -367.55, 0.00
-9, -393.19, 0.00
-8, -386.91, 0.00
-7, -415.45, 0.00
-6, -342.18, 0.00
-5, -440.69, 0.00
-4, -324.10, 0.00
-3, -464.85, 0.00
-2, -310.87, 0.00
-1, -484.30, 0.00
0, -302.80, 0.00
-29, -492.48, 0.00
-28, -299.02, 0.00
-27, -499.36, 0.00
-26, -295.62, 0.00
-25, -480.99, 0.00
-24, -286.17, 0.00
-23, -455.33, 0.00
-22, -286.35, 0.00
-21, -424.64, 0.00
-20, -295.20, 0.00
-19, -387.51, 0.00
-18, -299.80, 0.00
-17, -352.55, 0.00
-16, -318.13, 0.00
-15, -313.42, 0.00
-14, -330.74, 0.00
-13, -282.50, 0.00
-12, -356.18, 0.00
-11, -254.43, 0.00
-10, -369.05, 0.00
-9, -227.59, 0.00
-8, -383.62, 0.00
-7, -212.99, 0.00
-6, -394.33, 0.00
-5, -200.32, 0.00
-4, -393.41, 0.00
-3, -191.29, 0.00
-2, -390.86, 0.00
-1, -190.62, 0.00
0, -373.12, 0.00
-29, -194.62, 0.00
-28, -352.08, 0.00
-27, -204.14, 0.00
-26, -329.84, 0.00
-25, -224.34, 0.00
-24, -301.44, 0.00
-23, -242.09, 0.00
-22, -273.41, 0.00
-21, -270.30, 0.00
-20, -246.76, 0.00
-19, -292.83, 0.00
-18, -219.07, 0.00
-17, -313.59, 0.00
-16, -196.23, 0.00
-15, -336.91, 0.00
-14, -184.00, 0.00
-13, -355.30, 0.00
-12, -170.68, 0.00
-11, -366.59, 0.00
-10, -168.93, 0.00
-9, -372.51, 0.00
-8, -174.79, 0.00
-7, -367.48, 0.00
-6, -173.63, 0.00
-5, -349.89, 0.00
-4, -184.16, 0.00
-3, -324.64, 0.00
-2, -190.15, 0.00
-1, -293.50, 0.00
0, -209.28, 0.00
-29, -258.25, 0.00
-28, -217.57, 0.00
-27, -216.50, 0.00
-26, -232.97, 0.00
-25, -178.77, 0.00
-24, -243.77, 0.00
-23, -142.96, 0.00
-22, -254.01, 0.00
-21, -109.95, 0.00
-20, -260.80, 0.00
-19, -83.24, 0.00
-18, -260.55, 0.00
-17, -60.66, 0.00
-16, -255.17, 0.00
-15, -48.10, 0.00
-14, -244.73, 0.00
-13, -46.16, 0.00
-12, -230.18, 0.00
-11, -46.09, 0.00
-10, -208.92, 0.00
-9, -62.38, 0.00
-8, -187.26, 0.00
-7, -73.76, 0.00
-6, -153.65, 0.00
-5, -89.94, 0.00
-4, -117.84, 0.00
-3, -107.27, 0.00
-2, -84.69, 0.00
-1, -125.35, 0.00
0, -47.25, 0.00
-29, -139.52, 0.00
-28, -20.03, 0.00
-27, -152.04, 0.00
-26, 6.50, 0.00
-25, -164.40, 0.00
-24, 20.79, 0.00
-23, -172.04, 0.00
-22, 27.74, 0.00
-21, -178.68, 0.00
-20, 19.85, 0.00
-19, -181.52, 0.00
-18, 1.56, 0.00
-17, -181.52, 0.00
-16, -16.43, 0.00
-15, -170.25, 0.00
-14, -44.03, 0.00
-13, -157.11, 0.00
-12, -74.61, 0.00
-11, -139.41, 0.00
-10, -108.32, 0.00
-9, -115.27, 0.00
-8, -135.94, 0.00
-7, -94.75, 0.00
-6, -166.50, 0.00
-5, -185.97, 0.00
-4, -49.20, 0.00
-3, -203.45, 0.00
-2, -27.98, 0.00
-1, -211.34, 0.00
0, -15.33, 0.00
-29, -216.86, 0.00
-28, -12.05, 0.00
-27, -215.72, 0.00
-26, -16.65, 0.00
-25, -211.00, 0.00
-24, -35.43, 0.00
-23, -200.92, 0.00
-22, -43.56, 0.00
-21, -176.42, 0.00
-20, -67.21, 0.00
-19, -151.01, 0.00
-18, -84.85, 0.00
-17, -119.00, 0.00
-16, -110.57, 0.00
-15, -92.42, 0.00
-14, -136.95, 0.00
-13, -70.97, 0.00
-12, -166.12, 0.00
-11, -50.02, 0.00
-10, -189.48, 0.00
-9, -34.40, 0.00
-8, -211.36, 0.00
-7, -29.68, 0.00
-6, -229.26, 0.00
-5, -30.24, 0.00
-4, -238.09, 0.00
-3, -37.75, 0.00
-2, -243.63, 0.00
-1, -52.91, 0.00
0, -243.08, 0.00
-29, -77.67, 0.00
-28, -233.64, 0.00
-27, -107.91, 0.00
-26, -229.80, 0.00
-25, -150.63, 0.00
-24, -219.18, 0.00
-23, -188.13, 0.00
-22, -207.89, 0.00
-21, -231.47, 0.00
-20, -192.16, 0.00
-19, -268.42, 0.00
-18, -179.98, 0.00
-17, -304.81, 0.00
-16, -170.39, 0.00
-15, -334.05, 0.00
-14, -169.05, 0.00
-13, -170.01, 0.00
-12, -381.01, 0.00
-11, -179.55, 0.00
-10, -390.06, 0.00
-9, -193.50, 0.00
-8, -393.23, 0.00
-7, -214.15, 0.00
-6, -392.52, 0.00
-5, -248.06, 0.00
-4, -384.96, 0.00
-3, -276.76, 0.00
-2, -374.28, 0.00
-1, -320.79, 0.00
0, -354.92, 0.00
-29, -343.90, 0.00
-28, -396.18, 0.00
-27, -331.74, 0.00
-26, -432.35, 0.00
-25, -321.95, 0.00
-24, -468.47, 0.00
-23, -316.41, 0.00
-22, -495.31, 0.00
-21, -308.52, 0.00
-20, -508.01, 0.00
-19, -310.51, 0.00
-18, -522.63, 0.00
-17, -318.62, 0.00
-16, -526.29, 0.00
-15, -333.94, 0.00
-14, -523.52, 0.00
-13, -354.23, 0.00
-12, -378.66, 0.00
-11, -488.85, 0.00
-10, -402.35, 0.00
-9, -470.86, 0.00
-8, -435.84, 0.00
-7, -446.59, 0.00
-6, -463.26, 0.00
-5, -420.35, 0.00
-4, -490.78, 0.00
-3, -397.32, 0.00
-2, -517.44, 0.00
-1, -381.03, 0.00
0, -539.59, 0.00
-29, -557.47, 0.00
-28, -359.46, 0.00
-27, -566.59, 0.00
-26, -359.73, 0.00
-25, -567.44, 0.00
-24, -564.47, 0.00
-23, -381.25, 0.00
-22, -550.84, 0.00
-21, -392.70, 0.00
-20, -531.14, 0.00
-19, -418.40, 0.00
-18, -507.38, 0.00
-17, -440.96, 0.00
-16, -479.31, 0.00
-15, -471.40, 0.00
-14, -452.33, 0.00
-13, -495.49, 0.00
-12, -426.47, 0.00
-11, -519.50, 0.00
-10, -401.55, 0.00
-9, -540.64, 0.00
-8, -380.76, 0.00
-7, -556.65, 0.00
-6, -366.95, 0.00
-5, -567.18, 0.00
-4, -574.26, 0.00
-3, -367.26, 0.00
-2, -572.32, 0.00
-1, -372.67, 0.00
0, -563.13, 0.00
-29, -393.61, 0.00
-28, -550.23, 0.00
-27, -412.70, 0.00
-26, -528.33, 0.00
-25, -439.82, 0.00
-24, -504.05, 0.00
-23, -460.56, 0.00
-22, -473.28, 0.00
-21, -492.48, 0.00
-20, -448.82, 0.00
-19, -519.97, 0.00
-18, -425.04, 0.00
-17, -541.34, 0.00
-16, -402.42, 0.00
-15, -562.30, 0.00
-14, -386.69, 0.00
-13, -574.82, 0.00
-12, -372.11, 0.00
-11, -578.17, 0.00
-10, -367.35, 0.00
-9, -576.16, 0.00
-8, -369.85, 0.00
-7, -565.79, 0.00
-6, -376.20, 0.00
-5, -552.04, 0.00
-4, -397.32, 0.00
-3, -534.25, 0.00
-2, -418.76, 0.00
-1, -512.48, 0.00
0, -450.19, 0.00
-29, -489.68, 0.00
-28, -478.89, 0.00
-27, -468.02, 0.00
-26, -513.35, 0.00
-25, -443.21, 0.00
-24, -538.21, 0.00
-23, -421.98, 0.00
-22, -562.24, 0.00
-21, -400.16, 0.00
-20, -573.68, 0.00
-19, -380.58, 0.00
-18, -576.38, 0.00
-17, -366.43, 0.00
-16, -574.62, 0.00
-15, -566.24, 0.00
-14, -366.35, 0.00
-13, -550.97, 0.00
-12, -370.39, 0.00
-11, -525.69, 0.00
-10, -386.42, 0.00
-9, -499.40, 0.00
-8, -404.16, 0.00
-7, -468.02, 0.00
-6, -426.94, 0.00
-5, -437.83, 0.00
-4, -450.79, 0.00
-3, -403.76, 0.00
-2, -470.39, 0.00
-1, -373.30, 0.00
0, -487.07, 0.00
-29, -344.73, 0.00
-28, -500.23, 0.00
-27, -321.28, 0.00
-26, -510.54, 0.00
-25, -306.69, 0.00
-24, -508.17, 0.00
-23, -290.17, 0.00
-22, -498.82, 0.00
-21, -286.59, 0.00
-20, -485.19, 0.00
-19, -291.04, 0.00
-18, -460.47, 0.00
-17, -292.54, 0.00
-16, -430.20, 0.00
-15, -312.08, 0.00
-14, -397.70, 0.00
-13, -322.65, 0.00
-12, -349.58, 0.00
-11, -328.10, 0.00
-10, -291.18, 0.00
-9, -382.89, 0.00
-8, -257.02, 0.00
-7, -386.77, 0.00
-6, -223.16, 0.00
-5, -396.30, 0.00
-4, -199.56, 0.00
-3, -397.10, 0.00
-2, -181.00, 0.00
-1, -384.72, 0.00
0, -168.67, 0.00
-29, -374.44, 0.00
-28, -166.57, 0.00
-27, -352.58, 0.00
-26, -170.07, 0.00
-25, -328.48, 0.00
-24, -184.51, 0.00
-23, -301.32, 0.00
-22, -208.56, 0.00
-21, -273.23, 0.00
-20, -226.36, 0.00
-19, -241.82, 0.00
-18, -258.05, 0.00
-17, -215.49, 0.00
-16, -283.51, 0.00
-15, -187.87, 0.00
-14, -304.79, 0.00
-13, -163.28, 0.00
-12, -321.55, 0.00
-11, -142.76, 0.00
-10, -332.26, 0.00
-9, -124.92, 0.00
-8, -333.18, 0.00
-7, -118.02, 0.00
-6, -330.25, 0.00
-5, -118.82, 0.00
-4, -321.06, 0.00
-3, -125.06, 0.00
-2, -304.43, 0.00
-1, -144.50, 0.00
0, -287.29, 0.00
-29, -167.46, 0.00
-28, -262.25, 0.00
-27, -192.20, 0.00
-26, -232.75, 0.00
-25, -215.02, 0.00
-24, -204.23, 0.00
-23, -246.18, 0.00
-22, -171.88, 0.00
-21, -265.27, 0.00
-20, -146.96, 0.00
-19, -287.18, 0.00
-18, -127.00, 0.00
-17, -305.19, 0.00
-16, -113.41, 0.00
-15, -318.27, 0.00
-14, -108.34, 0.00
-13, -321.35, 0.00
-12, -100.90, 0.00
-11, -311.34, 0.00
-10, -107.42, 0.00
-9, -296.88, 0.00
-8, -112.18, 0.00
-7, -272.71, 0.00
-6, -127.34, 0.00
-5, -246.14, 0.00
-4, -146.74, 0.00
-3, -215.81, 0.00
-2, -171.93, 0.00
-1, -184.67, 0.00
0, -191.93, 0.00
-29, -152.57, 0.00
-28, -219.63, 0.00
-27, -121.71, 0.00
-26, -239.57, 0.00
-25, -98.03, 0.00
-24, -255.35, 0.00
-23, -76.64, 0.00
-22, -267.93, 0.00
-21, -63.32, 0.00
-20, -272.42, 0.00
-19, -51.68, 0.00
-18, -264.06, 0.00
-17, -49.02, 0.00
-16, -253.25, 0.00
-15, -57.76, 0.00
-14, -235.61, 0.00
-13, -65.20, 0.00
-12, -210.78, 0.00
-11, -90.68, 0.00
-10, -185.03, 0.00
-9, -111.13, 0.00
-8, -155.21, 0.00
-7, -139.88, 0.00
-6, -126.91, 0.00
-5, -162.43, 0.00
-4, -95.96, 0.00
-3, -190.08, 0.00
-2, -67.57, 0.00
-1, -207.67, 0.00
0, -47.45, 0.00
-29, -225.33, 0.00
-28, -32.21, 0.00
-27, -237.96, 0.00
-26, -25.10, 0.00
-25, -239.95, 0.00
-24, -25.91, 0.00
-23, -237.46, 0.00
-22, -29.01, 0.00
-21, -227.50, 0.00
-20, -49.35, 0.00
-19, -216.25, 0.00
-18, -70.01, 0.00
-17, -196.67, 0.00
-16, -100.02, 0.00
-15, -177.70, 0.00
-14, -134.74, 0.00
-13, -154.83, 0.00
-12, -169.94, 0.00
-11, -130.98, 0.00
-10, -195.60, 0.00
-9, -104.11, 0.00
-8, -222.38, 0.00
-7, -79.73, 0.00
-6, -241.47, 0.00
-5, -62.67, 0.00
-4, -252.15, 0.00
-3, -47.10, 0.00
-2, -259.39, 0.00
-1, -39.20, 0.00
0, -255.64, 0.00
-29, -39.85, 0.00
-28, -244.04, 0.00
-27, -45.62, 0.00
-26, -229.35, 0.00
-25, -62.96, 0.00
-24, -210.08, 0.00
-23, -81.32, 0.00
-22, -179.19, 0.00
-21, -104.47, 0.00
-20, -154.41, 0.00
-19, -133.33, 0.00
-18, -116.05, 0.00
-17, -145.71, 0.00
-16, -77.81, 0.00
-15, -171.64, 0.00
-14, -47.23, 0.00
-13, -176.15, 0.00
-12, -9.75, 0.00
-11, -189.14, 0.00
-10, 11.22, 0.00
-9, -187.78, 0.00
-8, 37.86, 0.00
-7, -174.86, 0.00
-6, 52.37, 0.00
-5, -163.95, 0.00
-4, 52.57, 0.00
-3, -140.21, 0.00
-2, 55.32, 0.00
-1, -116.50, 0.00
0, 37.60, 0.00
-29, -78.52, 0.00
-28, 33.80, 0.00
-27, -45.22, 0.00
-26, 3.82, 0.00
-25, -7.76, 0.00
-24, -8.29, 0.00
-23, 28.45, 0.00
-22, -38.04, 0.00
-21, 59.72, 0.00
-20, -52.55, 0.00
-19, 90.86, 0.00
-18, -71.30, 0.00
-17, 111.47, 0.00
-16, -82.70, 0.00
-15, 127.23, 0.00
-14, -84.38, 0.00
-13, 138.60, 0.00
-12, -78.79, 0.00
-11, 147.50, 0.00
-10, -65.49, 0.00
-9, 139.30, 0.00
-8, -47.01, 0.00
-7, 129.15, 0.00
-6, -22.35, 0.00
-5, 106.46, 0.00
-4, 5.36, 0.00
-3, 85.29, 0.00
-2, 31.34, 0.00
-1, 54.43, 0.00
0, 66.18, 0.00
-29, 28.74, 0.00
-28, 93.25, 0.00
-27, 2.39, 0.00
-26, 124.50, 0.00
-25, -14.28, 0.00
-24, 146.83, 0.00
-23, -33.28, 0.00
-22, 164.80, 0.00
-21, -40.99, 0.00
-20, 180.83, 0.00
-19, -40.28, 0.00
-18, 178.99, 0.00
-17, -43.72, 0.00
-16, 177.56, 0.00
-15, -18.40, 0.00
-14, 175.98, 0.00
-13, 4.25, 0.00
-12, 165.85, 0.00
-11, 38.71, 0.00
-10, 151.08, 0.00
-9, 80.71, 0.00
-8, 137.22, 0.00
-7, 116.59, 0.00
-6, 110.35, 0.00
-5, 153.20, 0.00
-4, 93.54, 0.00
-3, 184.22, 0.00
-2, 67.41, 0.00
-1, 212.27, 0.00
0, 50.31, 0.00
-29, 232.88, 0.00
-28, 33.21, 0.00
-27, 241.26, 0.00
-26, 246.20, 0.00
-25, 23.78, 0.00
-24, 244.75, 0.00
-23, 28.92, 0.00
-22, 236.32, 0.00
-21, 43.61, 0.00
-20, 220.70, 0.00
-19, 70.56, 0.00
-18, 208.18, 0.00
-17, 101.77, 0.00
-16, 182.64, 0.00
-15, 136.66, 0.00
-14, 161.80, 0.00
-13, 166.81, 0.00
-12, 128.86, 0.00
-11, 195.69, 0.00
-10, 105.72, 0.00
-9, 218.82, 0.00
-8, 74.65, 0.00
-7, 240.04, 0.00
-6, 51.92, 0.00
-5, 245.06, 0.00
-4, 31.49, 0.00
-3, 247.79, 0.00
-2, 22.49, 0.00
-1, 243.77, 0.00
0, 14.13, 0.00
-29, 223.07, 0.00
-28, 14.66, 0.00
-27, 205.90, 0.00
-26, 24.59, 0.00
-25, 168.87, 0.00
-24, 33.26, 0.00
-23, 137.15, 0.00
-22, 51.97, 0.00
-21, 96.54, 0.00
-20, 68.80, 0.00
-19, 57.53, 0.00
-18, 89.56, 0.00
-17, 19.65, 0.00
-16, 106.93, 0.00
-15, -17.28, 0.00
-14, 120.77, 0.00
-13, -46.49, 0.00
-12, 133.98, 0.00
-11, -69.85, 0.00
-10, 133.48, 0.00
-9, -88.60, 0.00
-8, 128.72, 0.00
-7, -101.99, 0.00
-6, 116.97, 0.00
-5, -107.98, 0.00
-4, 89.74, 0.00
-3, -110.33, 0.00
-2, 60.17, 0.00
-1, -102.62, 0.00
0, 16.67, 0.00
-29, -98.82, 0.00
-28, -24.63, 0.00
-27, -85.92, 0.00
-26, -72.22, 0.00
-25, -71.01, 0.00
-24, -112.18, 0.00
-23, -54.65, 0.00
-22, -153.04, 0.00
-21, -38.82, 0.00
-20, -184.40, 0.00
-19, -22.60, 0.00
-18, -205.52, 0.00
-17, -10.01, 0.00
-16, -228.75, 0.00
-15, -13.17, 0.00
-14, -241.58, 0.00
-13, -19.40, 0.00
-12, -246.12, 0.00
-11, -33.35, 0.00
-10, -246.38, 0.00
-9, -60.98, 0.00
-8, -241.58, 0.00
-7, -86.90, 0.00
-6, -227.63, 0.00
-5, -127.14, 0.00
-4, -211.36, 0.00
-3, -159.90, 0.00
-2, -187.93, 0.00
-1, -197.39, 0.00
0, -166.54, 0.00
-29, -234.60, 0.00
-28, -147.68, 0.00
-27, -269.58, 0.00
-26, -128.70, 0.00
-25, -296.59, 0.00
-24, -118.96, 0.00
-23, -321.62, 0.00
-22, -112.90, 0.00
-21, -333.71, 0.00
-20, -107.67, 0.00
-19, -339.59, 0.00
-18, -118.13, 0.00
-17, -338.00, 0.00
-16, -128.61, 0.00
-15, -326.13, 0.00
-14, -152.37, 0.00
-13, -309.33, 0.00
-12, -173.36, 0.00
-11, -283.51, 0.00
-10, -201.34, 0.00
-9, -254.21, 0.00
-8, -229.19, 0.00
-7, -227.99, 0.00
-6, -264.33, 0.00
-5, -198.68, 0.00
-4, -293.08, 0.00
-3, -178.75, 0.00
-2, -323.88, 0.00
-1, -159.01, 0.00
0, -339.55, 0.00
-29, -141.82, 0.00
-28, -355.73, 0.00
-27, -135.18, 0.00
-26, -130.82, 0.00
-25, -354.57, 0.00
-24, -136.03, 0.00
-23, -341.36, 0.00
-22, -139.41, 0.00
-21, -310.71, 0.00
-20, -148.04, 0.00
-19, -276.22, 0.00
-18, -165.94, 0.00
-17, -246.00, 0.00
-16, -188.81, 0.00
-15, -206.91, 0.00
-14, -208.18, 0.00
-13, -172.71, 0.00
-12, -234.72, 0.00
-11, -136.88, 0.00
-10, -251.86, 0.00
-9, -104.76, 0.00
-8, -266.37, 0.00
-7, -81.70, 0.00
-6, -277.70, 0.00
-5, -61.80, 0.00
-4, -280.29, 0.00
-3, -50.60, 0.00
-2, -278.08, 0.00
-1, -48.86, 0.00
0, -265.45, 0.00
-29, -53.69, 0.00
-28, -243.79, 0.00
-27, -61.42, 0.00
-26, -215.47, 0.00
-25, -74.70, 0.00
-24, -176.11, 0.00
-23, -84.74, 0.00
-22, -134.11, 0.00
-21, -108.07, 0.00
-20, -95.35, 0.00
-19, -120.70, 0.00
-18, -52.66, 0.00
-17, -138.98, 0.00
-16, -11.22, 0.00
-15, -143.30, 0.00
-14, 33.42, 0.00
-13, -139.07, 0.00
-12, 74.72, 0.00
-11, -123.11, 0.00
-10, 111.60, 0.00
-9, -99.82, 0.00
-8, 142.40, 0.00
-7, -71.46, 0.00
-6, 164.98, 0.00
-5, -31.94, 0.00
-4, 174.34, 0.00
-3, 5.03, 0.00
-2, 175.37, 0.00
-1, 48.73, 0.00
0, 164.78, 0.00
-29, 90.19, 0.00
-28, 152.66, 0.00
-27, 131.83, 0.00
-26, 133.24, 0.00
-25, 179.15, 0.00
-24, 120.39, 0.00
-23, 217.68, 0.00
-22, 101.61, 0.00
-21, 252.91, 0.00
-20, 94.53, 0.00
-19, 285.10, 0.00
-18, 87.66, 0.00
-17, 305.10, 0.00
-16, 85.41, 0.00
-15, 320.28, 0.00
-14, 96.18, 0.00
-13, 325.87, 0.00
-12, 107.91, 0.00
-11, 325.64, 0.00
-10, 129.64, 0.00
-9, 308.12, 0.00
-8, 151.41, 0.00
-7, 289.90, 0.00
-6, 180.47, 0.00
-5, 265.76, 0.00
-4, 213.84, 0.00
-3, 241.51, 0.00
-2, 250.63, 0.00
-1, 220.61, 0.00
0, 291.22, 0.00
-29, 203.07, 0.00
-28, 324.41, 0.00
-27, 185.59, 0.00
-26, 357.54, 0.00
-25, 170.39, 0.00
-24, 374.93, 0.00
-23, 391.16, 0.00
-22, 160.46, 0.00
-21, 394.78, 0.00
-20, 170.45, 0.00
-19, 394.55, 0.00
-18, 181.03, 0.00
-17, 382.04, 0.00
-16, 197.48, 0.00
-15, 358.54, 0.00
-14, 224.99, 0.00
-13, 337.76, 0.00
-12, 249.80, 0.00
-11, 299.78, 0.00
-10, 279.58, 0.00
-9, 277.32, 0.00
-8, 307.34, 0.00
-7, 237.42, 0.00
-6, 330.16, 0.00
-5, 209.97, 0.00
-4, 353.09, 0.00
-3, 178.43, 0.00
-2, 361.32, 0.00
-1, 156.46, 0.00
0, 373.61, 0.00
-29, 144.01, 0.00
-28, 366.88, 0.00
-27, 133.51, 0.00
-26, 364.67, 0.00
-25, 136.70, 0.00
-24, 344.64, 0.00
-23, 140.93, 0.00
-22, 321.24, 0.00
-21, 154.76, 0.00
-20, 286.26, 0.00
-19, 164.67, 0.00
-18, 240.17, 0.00
-17, 175.91, 0.00
-16, 194.04, 0.00
-15, 186.99, 0.00
-14, 142.60, 0.00
-13, 199.76, 0.00
-12, 102.66, 0.00
-11, 217.33, 0.00
-10, 59.55, 0.00
-9, 219.25, 0.00
-8, 24.79, 0.00
-7, 223.58, 0.00
-6, -2.19, 0.00
-5, 218.04, 0.00
-4, -23.31, 0.00
-3, 206.95, 0.00
-2, -30.42, 0.00
-1, 193.43, 0.00
0, -30.67, 0.00
-29, 163.86, 0.00
-28, -24.25, 0.00
-27, 134.54, 0.00
-26, -15.02, 0.00
-25, 92.78, 0.00
-24, 2.32, 0.00
-23, 53.35, 0.00
-22, 15.33, 0.00
-21, 1.56, 0.00
-20, 32.50, 0.00
-19, -39.79, 0.00
-18, 41.13, 0.00
-17, -95.24, 0.00
-16, 43.41, 0.00
-15, -133.02, 0.00
-14, 48.44, 0.00
-13, -164.82, 0.00
-12, 49.22, 0.00
-11, -186.53, 0.00
-10, 43.07, 0.00
-9, -201.41, 0.00
-8, 21.44, 0.00
-7, -211.60, 0.00
-6, 0.34, 0.00
-5, -211.63, 0.00
-4, -32.83, 0.00
-3, -202.26, 0.00
-2, -66.41, 0.00
-1, -190.01, 0.00
0, -112.36, 0.00
-29, -172.13, 0.00
-28, -151.92, 0.00
-27, -158.90, 0.00
-26, -202.62, 0.00
-25, -142.43, 0.00
-24, -242.56, 0.00
-23, -128.37, 0.00
-22, -286.33, 0.00
-21, -123.05, 0.00
-20, -319.65, 0.00
-19, -116.56, 0.00
-18, -343.90, 0.00
-17, -122.13, 0.00
-16, -130.98, 0.00
-15, -373.32, 0.00
-14, -155.34, 0.00
-13, -376.94, 0.00
-12, -179.06, 0.00
-11, -373.52, 0.00
-10, -217.64, 0.00
-9, -367.40, 0.00
-8, -262.32, 0.00
-7, -359.82, 0.00
-6, -314.71, 0.00
-5, -346.25, 0.00
-4, -360.02, 0.00
-3, -331.99, 0.00
-2, -406.76, 0.00
-1, -315.43, 0.00
0, -441.58, 0.00
-29, -302.08, 0.00
-28, -478.98, 0.00
-27, -295.45, 0.00
-26, -508.77, 0.00
-25, -291.85, 0.00
-24, -527.84, 0.00
-23, -299.78, 0.00
-22, -541.99, 0.00
-21, -309.86, 0.00
-20, -540.17, 0.00
-19, -327.74, 0.00
-18, -535.44, 0.00
-17, -517.02, 0.00
-16, -376.60, 0.00
-15, -492.45, 0.00
-14, -411.00, 0.00
-13, -471.64, 0.00
-12, -449.69, 0.00
-11, -440.82, 0.00
-10, -476.67, 0.00
-9, -413.08, 0.00
-8, -508.50, 0.00
-7, -383.98, 0.00
-6, -529.22, 0.00
-5, -356.42, 0.00
-4, -549.90, 0.00
-3, -339.61, 0.00
-2, -558.82, 0.00
-1, -324.23, 0.00
0, -559.26, 0.00
-29, -318.76, 0.00
-28, -541.69, 0.00
-27, -299.51, 0.00
-26, -506.60, 0.00
-25, -292.23, 0.00
-24, -463.53, 0.00
-23, -285.32, 0.00
-22, -412.70, 0.00
-21, -287.82, 0.00
-20, -298.60, 0.00
-19, -318.22, 0.00
-18, -317.53, 0.00
-17, -273.54, 0.00
-16, -338.54, 0.00
-15, -240.62, 0.00
-14, -212.14, 0.00
-13, -379.98, 0.00
-12, -185.52, 0.00
-11, -393.77, 0.00
-10, -172.94, 0.00
-9, -401.28, 0.00
-8, -162.79, 0.00
-7, -396.77, 0.00
-6, -162.85, 0.00
-5, -392.43, 0.00
-4, -175.46, 0.00
-3, -379.55, 0.00
-2, -197.12, 0.00
-1, -224.19, 0.00
0, -340.86, 0.00
-29, -264.33, 0.00
-28, -318.58, 0.00
-27, -296.41, 0.00
-26, -296.21, 0.00
-25, -339.79, 0.00
-24, -272.00, 0.00
-23, -371.24, 0.00
-22, -249.71, 0.00
-21, -403.56, 0.00
-20, -233.24, 0.00
-19, -430.74, 0.00
-18, -222.22, 0.00
-17, -446.30, 0.00
-16, -219.52, 0.00
-15, -459.86, 0.00
-14, -222.11, 0.00
-13, -458.10, 0.00
-12, -232.64, 0.00
-11, -453.74, 0.00
-10, -253.07, 0.00
-9, -442.99, 0.00
-8, -285.88, 0.00
-7, -427.50, 0.00
-6, -322.20, 0.00
-5, -411.14, 0.00
-4, -367.13, 0.00
-3, -394.28, 0.00
-2, -407.38, 0.00
-1, -377.39, 0.00
0, -458.93, 0.00
-29, -496.79, 0.00
-28, -351.97, 0.00
-27, -536.67, 0.00
-26, -347.84, 0.00
-25, -562.39, 0.00
-24, -340.82, 0.00
-23, -573.90, 0.00
-22, -341.42, 0.00
-21, -586.60, 0.00
-20, -354.81, 0.00
-19, -583.78, 0.00
-18, -370.21, 0.00
-17, -578.37, 0.00
-16, -397.86, 0.00
-15, -568.29, 0.00
-14, -439.52, 0.00
-13, -554.81, 0.00
-12, -475.29, 0.00
-11, -539.46, 0.00
-10, -531.59, 0.00
-9, -519.39, 0.00
-8, -562.84, 0.00
-7, -503.45, 0.00
-6, -615.14, 0.00
-5, -490.75, 0.00
-4, -645.23, 0.00
-3, -475.89, 0.00
-2, -671.71, 0.00
-1, -464.47, 0.00
0, -696.35, 0.00
-29, -461.90, 0.00
-28, -696.26, 0.00
-27, -458.34, 0.00
-26, -700.95, 0.00
-25, -473.52, 0.00
-24, -691.14, 0.00
-23, -494.62, 0.00
-22, -683.23, 0.00
-21, -524.80, 0.00
-20, -667.91, 0.00
-19, -563.22, 0.00
-18, -648.65, 0.00
-17, -600.61, 0.00
-16, -628.04, 0.00
-15, -647.46, 0.00
-14, -604.95, 0.00
-13, -674.26, 0.00
-12, -580.41, 0.00
-11, -714.65, 0.00
-10, -562.84, 0.00
-9, -739.55, 0.00
-8, -756.09, 0.00
-7, -532.17, 0.00
-6, -766.42, 0.00
-5, -525.58, 0.00
-4, -760.32, 0.00
-3, -525.58, 0.00
-2, -756.38, 0.00
-1, -537.67, 0.00
0, -741.68, 0.00
-29, -558.10, 0.00
-28, -720.89, 0.00
-27, -582.24, 0.00
-26, -695.01, 0.00
-25, -616.06, 0.00
-24, -664.43, 0.00
-23, -645.43, 0.00
-22, -638.14, 0.00
-21, -683.65, 0.00
-20, -609.55, 0.00
-19, -708.30, 0.00
-18, -579.92, 0.00
-17, -737.25, 0.00
-16, -559.24, 0.00
-15, -754.77, 0.00
-14, -542.34, 0.00
-13, -769.62, 0.00
-12, -535.77, 0.00
-11, -773.08, 0.00
-10, -530.32, 0.00
-9, -769.79, 0.00
-8, -761.68, 0.00
-7, -557.14, 0.00
-6, -742.90, 0.00
-5, -587.22, 0.00
-4, -722.81, 0.00
-3, -610.43, 0.00
-2, -694.16, 0.00
-1, -646.77, 0.00
0, -664.54, 0.00
-29, -676.88, 0.00
-28, -634.70, 0.00
-27, -709.29, 0.00
-26, -604.50, 0.00
-25, -735.60, 0.00
-24, -580.47, 0.00
-23, -753.05, 0.00
-22, -554.81, 0.00
-21, -769.01, 0.00
-20, -542.12, 0.00
-19, -773.21, 0.00
-18, -531.75, 0.00
-17, -773.30, 0.00
-16, -532.35, 0.00
-15, -757.75, 0.00
-14, -541.47, 0.00
-13, -741.45, 0.00
-12, -555.64, 0.00
-11, -716.40, 0.00
-10, -581.10, 0.00
-9, -685.33, 0.00
-8, -600.52, 0.00
-7, -647.95, 0.00
-6, -626.41, 0.00
-5, -608.55, 0.00
-4, -650.46, 0.00
-3, -571.82, 0.00
-2, -670.51, 0.00
-1, -531.46, 0.00
0, -681.53, 0.00
-29, -497.84, 0.00
-28, -688.88, 0.00
-27, -468.98, 0.00
-26, -695.70, 0.00
-25, -452.73, 0.00
-24, -689.75, 0.00
-23, -445.72, 0.00
-22, -681.91, 0.00
-21, -447.17, 0.00
-20, -661.79, 0.00
-19, -458.97, 0.00
-18, -639.77, 0.00
-17, -475.49, 0.00
-16, -611.30, 0.00
-15, -502.20, 0.00
-14, -575.09, 0.00
-13, -522.81, 0.00
-12, -539.15, 0.00
-11, -552.56, 0.00
-10, -500.92, 0.00
-9, -570.77, 0.00
-8, -464.58, 0.00
-7, -594.51, 0.00
-6, -431.59, 0.00
-5, -609.35, 0.00
-4, -404.90, 0.00
-3, -615.50, 0.00
-2, -379.85, 0.00
-1, -614.14, 0.00
0, -368.29, 0.00
-29, -606.56, 0.00
-28, -366.81, 0.00
-27, -589.26, 0.00
-26, -566.77, 0.00
-25, -380.74, 0.00
-24, -532.66, 0.00
-23, -385.30, 0.00
-22, -490.60, 0.00
-21, -410.42, 0.00
-20, -450.75, 0.00
-19, -427.07, 0.00
-18, -403.11, 0.00
-17, -441.47, 0.00
-16, -357.58, 0.00
-15, -458.99, 0.00
-14, -319.12, 0.00
-13, -469.63, 0.00
-12, -283.04, 0.00
-11, -483.98, 0.00
-10, -259.37, 0.00
-9, -486.98, 0.00
-8, -245.36, 0.00
-7, -485.52, 0.00
-6, -234.20, 0.00
-5, -472.96, 0.00
-4, -236.08, 0.00
-3, -445.02, 0.00
-2, -234.29, 0.00
-1, -416.70, 0.00
0, -250.56, 0.00
-29, -377.88, 0.00
-28, -260.22, 0.00
-27, -338.63, 0.00
-26, -290.37, 0.00
-25, -296.07, 0.00
-24, -302.96, 0.00
-23, -252.60, 0.00
-22, -330.47, 0.00
-21, -208.77, 0.00
-20, -332.28, 0.00
-19, -157.38, 0.00
-18, -323.76, 0.00
-17, -101.14, 0.00
-16, -295.65, 0.00
-15, -38.09, 0.00
-14, -252.57, 0.00
-13, 13.75, 0.00
-12, -214.08, 0.00
-11, 42.18, 0.00
-10, -172.80, 0.00
-9, 62.76, 0.00
-8, -127.72, 0.00
-7, 68.37, 0.00
-6, -79.35, 0.00
-5, 65.71, 0.00
-4, -30.73, 0.00
-3, 53.47, 0.00
-2, 15.36, 0.00
-1, 34.96, 0.00
0, 56.15, 0.00
-29, 9.05, 0.00
-28, 93.14, 0.00
-27, -12.14, 0.00
-26, 131.18, 0.00
-25, -31.67, 0.00
-24, 155.05, 0.00
-23, -46.74, 0.00
-22, 176.94, 0.00
-21, -53.38, 0.00
-20, 190.75, 0.00
-19, -51.07, 0.00
-18, 198.01, 0.00
-17, -40.66, 0.00
-16, 196.63, 0.00
-15, -21.41, 0.00
-14, 182.55, 0.00
-13, 2.91, 0.00
-12, 166.14, 0.00
-11, 31.23, 0.00
-10, 136.46, 0.00
-9, 59.32, 0.00
-8, 101.16, 0.00
-7, 82.86, 0.00
-6, 62.47, 0.00
-5, 115.07, 0.00
-4, 28.10, 0.00
-3, 136.28, 0.00
-2, -6.62, 0.00
-1, 159.37, 0.00
0, -31.14, 0.00
-29, 171.77, 0.00
-28, -53.49, 0.00
-27, 177.81, 0.00
-26, -65.60, 0.00
-25, 183.28, 0.00
-24, -68.51, 0.00
-23, 169.65, 0.00
-22, -63.12, 0.00
-21, 159.28, 0.00
-20, -45.93, 0.00
-19, 130.22, 0.00
-18, -29.71, 0.00
-17, 108.20, 0.00
-16, -0.60, 0.00
-15, 71.50, 0.00
-14, 31.43, 0.00
-13, 47.27, 0.00
-12, 66.70, 0.00
-11, 10.68, 0.00
-10, 99.49, 0.00
-9, -12.52, 0.00
-8, 127.47, 0.00
-7, -40.79, 0.00
-6, 146.40, 0.00
-5, -60.37, 0.00
-4, 165.74, 0.00
-3, -69.04, 0.00
-2, 174.86, 0.00
-1, -76.06, 0.00
0, 173.76, 0.00
-29, -69.58, 0.00
-28, 163.44, 0.00
-27, -56.24, 0.00
-26, 148.04, 0.00
-25, -37.66, 0.00
-24, 120.19, 0.00
-23, -11.00, 0.00
-22, 96.29, 0.00
-21, 18.69, 0.00
-20, 59.21, 0.00
-19, 49.04, 0.00
-18, 27.05, 0.00
-17, 82.23, 0.00
-16, -5.14, 0.00
-15, 111.22, 0.00
-14, -30.40, 0.00
-13, 136.46, 0.00
-12, -55.25, 0.00
-11, 156.02, 0.00
-10, -73.72, 0.00
-9, 160.28, 0.00
-8, -88.33, 0.00
-7, 156.44, 0.00
-6, -91.91, 0.00
-5, 150.23, 0.00
-4, -91.26, 0.00
-3, 124.48, 0.00
-2, -78.99, 0.00
-1, 104.81, 0.00
0, -58.61, 0.00
-29, 66.45, 0.00
-28, -38.60, 0.00
-27, 33.28, 0.00
-26, -8.72, 0.00
-25, -4.81, 0.00
-24, 16.18, 0.00
-23, -41.69, 0.00
-22, 43.70, 0.00
-21, -72.06, 0.00
-20, 70.99, 0.00
-19, -105.21, 0.00
-18, 85.90, 0.00
-17, -129.91, 0.00
-16, 97.25, 0.00
-15, -142.29, 0.00
-14, 101.19, 0.00
-13, -153.65, 0.00
-12, 92.67, 0.00
-11, -149.60, 0.00
-10, 87.24, 0.00
-9, -136.99, 0.00
-8, 64.02, 0.00
-7, -119.36, 0.00
-6, 41.17, 0.00
-5, -94.35, 0.00
-4, 7.13, 0.00
-3, -62.72, 0.00
-2, -23.49, 0.00
-1, -33.06, 0.00
0, -61.98, 0.00
-29, -2.64, 0.00
-28, -93.83, 0.00
-27, 23.11, 0.00
-26, -124.23, 0.00
-25, 45.40, 0.00
-24, -152.86, 0.00
-23, 57.67, 0.00
-22, -173.58, 0.00
-21, 68.28, 0.00
-20, -183.57, 0.00
-19, 66.50, 0.00
-18, -186.06, 0.00
-17, 55.90, 0.00
-16, -178.26, 0.00
-15, 44.12, 0.00
-14, -161.45, 0.00
-13, 16.70, 0.00
-12, -141.93, 0.00
-11, -6.88, 0.00
-10, -115.71, 0.00
-9, -53.58, 0.00
-8, -88.89, 0.00
-7, -75.95, 0.00
-6, -48.17, 0.00
-5, -114.04, 0.00
-4, -17.88, 0.00
-3, -130.87, 0.00
-2, 19.83, 0.00
-1, -150.32, 0.00
0, 51.97, 0.00
-29, -156.66, 0.00
-28, 81.61, 0.00
-27, -147.43, 0.00
-26, 113.48, 0.00
-25, -135.52, 0.00
-24, 120.83, 0.00
-23, -113.10, 0.00
-22, 129.17, 0.00
-21, -86.48, 0.00
-20, 121.97, 0.00
-19, -54.09, 0.00
-18, 108.85, 0.00
-17, -17.05, 0.00
-16, 91.98, 0.00
-15, 27.20, 0.00
-14, 65.58, 0.00
-13, 69.00, 0.00
-12, 45.26, 0.00
-11, 112.45, 0.00
-10, 21.55, 0.00
-9, 149.62, 0.00
-8, 2.93, 0.00
-7, 180.58, 0.00
-6, -14.86, 0.00
-5, 207.04, 0.00
-4, -25.10, 0.00
-3, 219.25, 0.00
-2, -31.00, 0.00
-1, 220.81, 0.00
0, -30.96, 0.00
-29, 218.09, 0.00
-28, -18.13, 0.00
-27, 202.17, 0.00
-26, -4.29, 0.00
-25, 176.02, 0.00
-24, 14.39, 0.00
-23, 140.46, 0.00
-22, 38.98, 0.00
-21, 104.54, 0.00
-20, 63.70, 0.00
-19, 60.46, 0.00
-18, 94.01, 0.00
-17, 25.37, 0.00
-16, 117.73, 0.00
-15, -9.23, 0.00
-14, 146.94, 0.00
-13, -32.54, 0.00
-12, -60.48, 0.00
-11, 171.93, 0.00
-10, -75.93, 0.00
-9, 180.18, 0.00
-8, -78.05, 0.00
-7, 171.37, 0.00
-6, -74.92, 0.00
-5, 164.82, 0.00
-4, -57.98, 0.00
-3, 142.31, 0.00
-2, -36.66, 0.00
-1, 125.17, 0.00
0, -3.98, 0.00
-29, 91.58, 0.00
-28, 33.91, 0.00
-27, 72.22, 0.00
-26, 73.36, 0.00
-25, 41.10, 0.00
-24, 114.53, 0.00
-23, 19.18, 0.00
-22, 147.23, 0.00
-21, -6.91, 0.00
-20, 176.74, 0.00
-19, -27.43, 0.00
-18, 198.68, 0.00
-17, -36.75, 0.00
-16, 210.58, 0.00
-15, -44.39, 0.00
-14, 213.17, 0.00
-13, -40.08, 0.00
-12, 201.26, 0.00
-11, -34.71, 0.00
-10, 189.83, 0.00
-9, -17.59, 0.00
-8, 159.23, 0.00
-7, 7.33, 0.00
-6, 136.73, 0.00
-5, 37.39, 0.00
-4, 98.35, 0.00
-3, 73.00, 0.00
-2, 77.78, 0.00
-1, 115.58, 0.00
0, 47.77, 0.00
-29, 154.61, 0.00
-28, 25.26, 0.00
-27, 185.56, 0.00
-26, 5.12, 0.00
-25, 214.13, 0.00
-24, -7.89, 0.00
-23, 231.85, 0.00
-22, -13.01, 0.00
-21, 243.43, 0.00
-20, -15.78, 0.00
-19, 241.35, 0.00
-18, -3.87, 0.00
-17, 233.29, 0.00
-16, 10.21, 0.00
-15, 215.16, 0.00
-14, 36.23, 0.00
-13, 187.82, 0.00
-12, 62.70, 0.00
-11, 157.16, 0.00
-10, 93.68, 0.00
-9, 122.22, 0.00
-8, 126.24, 0.00
-7, 87.44, 0.00
-6, 155.21, 0.00
-5, 50.60, 0.00
-4, 184.92, 0.00
-3, 20.07, 0.00
-2, 202.02, 0.00
-1, -10.10, 0.00
0, 216.05, 0.00
-29, -24.45, 0.00
-28, 223.67, 0.00
-27, -36.68, 0.00
-26, 219.85, 0.00
-25, -33.15, 0.00
-24, 219.96, 0.00
-23, -20.12, 0.00
-22, 198.68, 0.00
-21, 1.21, 0.00
-20, 181.45, 0.00
-19, 29.50, 0.00
-18, 151.92, 0.00
-17, 60.04, 0.00
-16, 120.27, 0.00
-15, 92.42, 0.00
-14, 85.63, 0.00
-13, 126.40, 0.00
-12, 49.55, 0.00
-11, 154.50, 0.00
-10, 16.83, 0.00
-9, 183.71, 0.00
-8, -7.96, 0.00
-7, 202.84, 0.00
-6, -23.85, 0.00
-5, 219.47, 0.00
-4, -30.44, 0.00
-3, 230.04, 0.00
-2, -32.92, 0.00
-1, 220.12, 0.00
0, -28.70, 0.00
-29, 210.96, 0.00
-28, -11.33, 0.00
-27, 187.78, 0.00
-26, 14.22, 0.00
-25, 168.26, 0.00
-24, 45.20, 0.00
-23, 133.26, 0.00
-22, 76.38, 0.00
-21, 103.44, 0.00
-20, 109.57, 0.00
-19, 61.80, 0.00
-18, 141.60, 0.00
-17, 31.96, 0.00
-16, 171.50, 0.00
-15, 6.37, 0.00
-14, 199.06, 0.00
-13, -16.12, 0.00
-12, 214.08, 0.00
-11, -24.92, 0.00
-10, 234.20, 0.00
-9, -27.09, 0.00
-8, 235.94, 0.00
-7, -21.70, 0.00
-6, 228.84, 0.00
-5, -7.13, 0.00
-4, 214.60, 0.00
-3, 12.11, 0.00
-2, 185.27, 0.00
-1, 36.28, 0.00
0, 159.19, 0.00
-29, 63.30, 0.00
-28, 115.07, 0.00
-27, 93.16, 0.00
-26, 82.84, 0.00
-25, 129.19, 0.00
-24, 46.18, 0.00
-23, 155.93, 0.00
-22, 14.33, 0.00
-21, 186.17, 0.00
-20, -6.55, 0.00
-19, 208.90, 0.00
-18, -24.92, 0.00
-17, 224.05, 0.00
-16, -29.59, 0.00
-15, 232.99, 0.00
-14, -31.85, 0.00
-13, 230.87, 0.00
-12, -24.14, 0.00
-11, 214.80, 0.00
-10, -2.46, 0.00
-9, 202.10, 0.00
-8, 19.96, 0.00
-7, 164.20, 0.00
-6, 49.93, 0.00
-5, 143.57, 0.00
-4, 85.23, 0.00
-3, 101.03, 0.00
-2, 118.17, 0.00
-1, 71.41, 0.00
0, 147.14, 0.00
-29, 26.04, 0.00
-28, 171.26, 0.00
-27, 3.22, 0.00
-26, 195.94, 0.00
-25, -28.45, 0.00
-24, 205.93, 0.00
-23, -39.32, 0.00
-22, 216.14, 0.00
-21, -50.69, 0.00
-20, -47.56, 0.00
-19, 205.03, 0.00
-18, 187.51, 0.00
-17, -12.27, 0.00
-16, 160.78, 0.00
-15, 14.57, 0.00
-14, 132.79, 0.00
-13, 38.67, 0.00
-12, 84.58, 0.00
-11, 65.71, 0.00
-10, 49.24, 0.00
-9, 94.53, 0.00
-8, -2.19, 0.00
-7, 108.09, 0.00
-6, -38.67, 0.00
-5, 131.81, 0.00
-4, -73.36, 0.00
-3, 142.74, 0.00
-2, -96.94, 0.00
-1, 151.43, 0.00
0, -114.33, 0.00
-29, 145.38, 0.00
-28, -125.04, 0.00
-27, 128.68, 0.00
-26, -126.20, 0.00
-25, 114.15, 0.00
-24, -110.89, 0.00
-23, 80.94, 0.00
-22, -95.53, 0.00
-21, 52.86, 0.00
-20, -68.33, 0.00
-19, 6.28, 0.00
-18, -41.51, 0.00
-17, -24.30, 0.00
-16, -14.53, 0.00
-15, -79.62, 0.00
-14, 9.32, 0.00
-13, -103.06, 0.00
-12, 39.38, 0.00
-11, -145.38, 0.00
-10, 55.88, 0.00
-9, -164.51, 0.00
-8, 76.62, 0.00
-7, -175.24, 0.00
-6, 82.25, 0.00
-5, -183.33, 0.00
-4, 82.66, 0.00
-3, -175.13, 0.00
-2, 74.27, 0.00
-1, -159.30, 0.00
0, 63.86, 0.00
-29, -135.38, 0.00
-28, 30.04, 0.00
-27, -111.92, 0.00
-26, 7.42, 0.00
-25, -74.48, 0.00
-24, -29.59, 0.00
-23, -35.27, 0.00
-22, -48.28, 0.00
-21, 8.78, 0.00
-20, -76.85, 0.00
-19, 47.05, 0.00
-18, -101.19, 0.00
-17, 80.04, 0.00
-16, -116.88, 0.00
-15, 108.45, 0.00
-14, -131.54, 0.00
-13, 122.62, 0.00
-12, -133.13, 0.00
-11, 130.04, 0.00
-10, -134.18, 0.00
-9, 126.35, 0.00
-8, -121.55, 0.00
-7, 115.96, 0.00
-6, -102.86, 0.00
-5, 96.38, 0.00
-4, -73.49, 0.00
-3, 72.37, 0.00
-2, -38.00, 0.00
-1, 40.39, 0.00
0, -9.21, 0.00
-29, 0.92, 0.00
-28, 21.61, 0.00
-27, -37.04, 0.00
-26, 48.91, 0.00
-25, -72.60, 0.00
-24, 77.36, 0.00
-23, -105.21, 0.00
-22, 97.79, 0.00
-21, -126.40, 0.00
-20, 113.55, 0.00
-19, -142.34, 0.00
-18, 123.31, 0.00
-17, -142.45, 0.00
-16, 118.15, 0.00
-15, -144.21, 0.00
-14, 109.43, 0.00
-13, -131.54, 0.00
-12, 86.46, 0.00
-11, -111.62, 0.00
-10, 62.61, 0.00
-9, -83.86, 0.00
-8, 29.75, 0.00
-7, -46.74, 0.00
-6, 1.59, 0.00
-5, -13.08, 0.00
-4, -38.94, 0.00
-3, 25.08, 0.00
-2, -64.78, 0.00
-1, 55.41, 0.00
0, -96.47, 0.00
-29, 84.74, 0.00
-28, -119.02, 0.00
-27, 105.90, 0.00
-26, -138.94, 0.00
-25, 114.51, 0.00
-24, -151.34, 0.00
-23, 116.07, 0.00
-22, -153.65, 0.00
-21, 104.40, 0.00
-20, -147.75, 0.00
-19, 92.38, 0.00
-18, -133.84, 0.00
-17, 59.17, 0.00
-16, -111.18, 0.00
-15, 32.23, 0.00
-14, -83.06, 0.00
-13, -7.55, 0.00
-12, -50.58, 0.00
-11, -42.62, 0.00
-10, -22.40, 0.00
-9, -83.66, 0.00
-8, 9.05, 0.00
-7, -118.53, 0.00
-6, 34.96, 0.00
-5, -146.05, 0.00
-4, 64.75, 0.00
-3, 75.33, 0.00
-2, -181.16, 0.00
-1, 83.30, 0.00
0, -188.00, 0.00
-29, 82.90, 0.00
-28, -184.67, 0.00
-27, 66.50, 0.00
-26, -170.23, 0.00
-25, 54.16, 0.00
-24, -147.05, 0.00
-23, 21.90, 0.00
-22, -116.14, 0.00
-21, -2.66, 0.00
-20, -80.82, 0.00
-19, -42.29, 0.00
-18, -48.75, 0.00
-17, -73.94, 0.00
-16, -11.38, 0.00
-15, -103.49, 0.00
-14, 28.03, 0.00
-13, -129.10, 0.00
-12, 59.30, 0.00
-11, -147.01, 0.00
-10, 87.06, 0.00
-9, 108.27, 0.00
-8, -155.46, 0.00
-7, 114.93, 0.00
-6, -151.32, 0.00
-5, 117.08, 0.00
-4, -139.77, 0.00
-3, 94.39, 0.00
-2, -123.85, 0.00
-1, 78.72, 0.00
0, -96.16, 0.00
-29, 40.72, 0.00
-28, -63.75, 0.00
-27, 14.80, 0.00
-26, -25.82, 0.00
-25, -19.67, 0.00
-24, 10.75, 0.00
-23, -54.45, 0.00
-22, 42.00, 0.00
-21, -86.50, 0.00
-20, 73.49, 0.00
-19, -118.37, 0.00
-18, 93.52, 0.00
-17, -134.76, 0.00
-16, 115.49, 0.00
-15, -148.86, 0.00
-14, 119.54, 0.00
-13, -149.31, 0.00
-12, 119.38, 0.00
-11, -149.49, 0.00
-10, 110.80, 0.00
-9, -128.46, 0.00
-8, 89.30, 0.00
-7, -106.15, 0.00
-6, 66.85, 0.00
-5, -79.04, 0.00
-4, 30.13, 0.00
-3, -42.02, 0.00
-2, 2.41, 0.00
-1, -6.75, 0.00
0, -43.25, 0.00
-29, 29.66, 0.00
-28, -61.94, 0.00
-27, 63.72, 0.00
-26, -100.47, 0.00
-25, 94.61, 0.00
-24, -115.16, 0.00
-23, 122.20, 0.00
-22, -127.70, 0.00
-21, 137.40, 0.00
-20, -127.05, 0.00
-19, 149.67, 0.00
-18, -114.49, 0.00
-17, 156.57, 0.00
-16, -91.71, 0.00
-15, 155.61, 0.00
-14, -57.06, 0.00
-13, 144.10, 0.00
-12, -11.76, 0.00
-11, 140.59, 0.00
-10, 36.90, 0.00
-9, 115.65, 0.00
-8, 92.36, 0.00
-7, 107.65, 0.00
-6, 149.96, 0.00
-5, 82.92, 0.00
-4, 187.46, 0.00
-3, 57.02, 0.00
-2, 223.32, 0.00
-1, 34.62, 0.00
0, 254.41, 0.00
-29, 19.65, 0.00
-28, 269.41, 0.00
-27, -0.54, 0.00
-26, 265.94, 0.00
-25, -5.25, 0.00
-24, 271.44, 0.00
-23, 4.43, 0.00
-22, 252.44, 0.00
-21, 10.10, 0.00
-20, 234.63, 0.00
-19, 42.69, 0.00
-18, 211.87, 0.00
-17, 74.14, 0.00
-16, 175.93, 0.00
-15, 104.99, 0.00
-14, 146.61, 0.00
-13, 144.10, 0.00
-12, 107.69, 0.00
-11, 179.51, 0.00
-10, 72.67, 0.00
-9, 209.28, 0.00
-8, 36.75, 0.00
-7, 227.41, 0.00
-6, 10.53, 0.00
-5, 248.60, 0.00
-4, -9.86, 0.00
-3, 256.13, 0.00
-2, -20.65, 0.00
-1, 252.69, 0.00
0, -17.10, 0.00
-29, 250.70, 0.00
-28, -10.77, 0.00
-27, 224.12, 0.00
-26, 5.54, 0.00
-25, 203.15, 0.00
-24, 30.20, 0.00
-23, 162.45, 0.00
-22, 63.12, 0.00
-21, 135.70, 0.00
-20, 93.99, 0.00
-19, 87.98, 0.00
-18, 134.47, 0.00
-17, 64.24, 0.00
-16, 167.68, 0.00
-15, 25.01, 0.00
-14, 198.30, 0.00
-13, 8.52, 0.00
-12, 228.79, 0.00
-11, -12.83, 0.00
-10, 240.01, 0.00
-9, -29.08, 0.00
-8, 245.04, 0.00
-7, -26.60, 0.00
-6, 240.12, 0.00
-5, -32.32, 0.00
-4, 220.48, 0.00
-3, -23.42, 0.00
-2, 188.00, 0.00
-1, -5.01, 0.00
0, 154.16, 0.00
-29, 12.58, 0.00
-28, 108.38, 0.00
-27, 36.90, 0.00
-26, 68.51, 0.00
-25, 67.82, 0.00
-24, 20.85, 0.00
-23, 92.09, 0.00
-22, -23.00, 0.00
-21, 111.18, 0.00
-20, -63.64, 0.00
-19, 129.53, 0.00
-18, -102.37, 0.00
-17, 132.14, 0.00
-16, -129.42, 0.00
-15, 127.63, 0.00
-14, -158.68, 0.00
-13, 110.06, 0.00
-12, -171.55, 0.00
-11, 80.98, 0.00
-10, -179.19, 0.00
-9, 54.54, 0.00
-8, -174.52, 0.00
-7, 4.20, 0.00
-6, -164.80, 0.00
-5, -41.33, 0.00
-4, -152.57, 0.00
-3, -98.86, 0.00
-2, -136.68, 0.00
-1, -149.76, 0.00
0, -119.81, 0.00
-29, -210.04, 0.00
-28, -99.40, 0.00
-27, -251.19, 0.00
-26, -89.38, 0.00
-25, -298.51, 0.00
-24, -81.32, 0.00
-23, -328.62, 0.00
-22, -73.58, 0.00
-21, -348.80, 0.00
-20, -81.63, 0.00
-19, -366.61, 0.00
-18, -97.52, 0.00
-17, -118.64, 0.00
-16, -151.61, 0.00
-15, -344.66, 0.00
-14, -185.14, 0.00
-13, -314.73, 0.00
-12, -221.26, 0.00
-11, -286.95, 0.00
-10, -263.77, 0.00
-9, -255.37, 0.00
-8, -300.85, 0.00
-7, -221.55, 0.00
-6, -341.60, 0.00
-5, -198.22, 0.00
-4, -377.03, 0.00
-3, -174.63, 0.00
-2, -403.45, 0.00
-1, -161.38, 0.00
0, -422.16, 0.00
-29, -153.87, 0.00
-28, -435.97, 0.00
-27, -157.29, 0.00
-26, -428.33, 0.00
-25, -159.43, 0.00
-24, -409.42, 0.00
-23, -172.85, 0.00
-22, -372.42, 0.00
-21, -171.15, 0.00
-20, -324.88, 0.00
-19, -189.14, 0.00
-18, -271.55, 0.00
-17, -200.85, 0.00
-16, -214.26, 0.00
-15, -217.86, 0.00
-14, -159.17, 0.00
-13, -234.25, 0.00
-12, -106.10, 0.00
-11, -248.15, 0.00
-10, -59.84, 0.00
-9, -255.08, 0.00
-8, -20.38, 0.00
-7, -258.41, 0.00
-6, 12.61, 0.00
-5, -250.21, 0.00
-4, 40.46, 0.00
-3, -226.83, 0.00
-2, 53.87, 0.00
-1, -206.42, 0.00
0, 55.19, 0.00
-29, -171.75, 0.00
-28, 46.58, 0.00
-27, -128.66, 0.00
-26, 37.04, 0.00
-25, -87.19, 0.00
-24, 8.90, 0.00
-23, -40.72, 0.00
-22, -12.11, 0.00
-21, 5.65, 0.00
-20, -40.66, 0.00
-19, 53.35, 0.00
-18, -59.70, 0.00
-17, 99.15, 0.00
-16, -79.26, 0.00
-15, 135.45, 0.00
-14, -84.91, 0.00
-13, 167.06, 0.00
-12, -92.04, 0.00
-11, 187.93, 0.00
-10, -74.63, 0.00
-9, 212.74, 0.00
-8, -53.04, 0.00
-7, 228.97, 0.00
-6, 6.62, 0.00
-5, 256.22, 0.00
-4, 55.25, 0.00
-3, 249.94, 0.00
-2, 124.41, 0.00
-1, 274.99, 0.00
0, 209.32, 0.00
-29, 285.99, 0.00
-28, 290.68, 0.00
-27, 290.75, 0.00
-26, 371.04, 0.00
-25, 305.44, 0.00
-24, 448.40, 0.00
-23, 308.25, 0.00
-22, 512.37, 0.00
-21, 323.12, 0.00
-20, 562.01, 0.00
-19, 311.18, 0.00
-18, 583.02, 0.00
-17, 318.07, 0.00
-16, 310.76, 0.00
-15, 588.25, 0.00
-14, 327.72, 0.00
-13, 570.57, 0.00
-12, 331.30, 0.00
-11, 538.19, 0.00
-10, 347.21, 0.00
-9, 491.31, 0.00
-8, 362.46, 0.00
-7, 442.97, 0.00
-6, 382.51, 0.00
-5, 389.35, 0.00
-4, 407.74, 0.00
-3, 347.19, 0.00
-2, 430.27, 0.00
-1, 298.33, 0.00
0, 449.74, 0.00
-29, 255.28, 0.00
-28, 460.62, 0.00
-27, 216.54, 0.00
-26, 459.73, 0.00
-25, 182.75, 0.00
-24, 450.39, 0.00
-23, 158.52, 0.00
-22, 424.26, 0.00
-21, 141.04, 0.00
-20, 398.29, 0.00
-19, 131.36, 0.00
-18, 351.21, 0.00
-17, 139.63, 0.00
-16, 314.53, 0.00
-15, 250.67, 0.00
-14, 163.93, 0.00
-13, 209.70, 0.00
-12, 180.45, 0.00
-11, 142.36, 0.00
-10, 194.30, 0.00
-9, 90.88, 0.00
-8, 205.43, 0.00
-7, 36.23, 0.00
-6, 213.86, 0.00
-5, -10.19, 0.00
-4, 217.80, 0.00
-3, -44.44, 0.00
-2, 213.21, 0.00
-1, -72.93, 0.00
0, 199.53, 0.00
-29, -83.04, 0.00
-28, 179.82, 0.00
-27, -92.76, 0.00
-26, 151.72, 0.00
-25, -83.82, 0.00
-24, 115.54, 0.00
-23, -73.00, 0.00
-22, 73.05, 0.00
-21, -53.33, 0.00
-20, 22.42, 0.00
-19, -30.55, 0.00
-18, -24.25, 0.00
-17, -7.55, 0.00
-16, -78.48, 0.00
-15, 12.70, 0.00
-14, -121.73, 0.00
-13, 32.61, 0.00
-12, -162.09, 0.00
-11, 48.15, 0.00
-10, -195.80, 0.00
-9, 53.26, 0.00
-8, -220.48, 0.00
-7, 53.87, 0.00
-6, -231.54, 0.00
-5, 45.28, 0.00
-4, -232.68, 0.00
-3, 25.08, 0.00
-2, -227.56, 0.00
-1, 3.60, 0.00
0, -212.65, 0.00
-29, -38.22, 0.00
-28, -192.27, 0.00
-27, -76.02, 0.00
-26, -166.10, 0.00
-25, -128.34, 0.00
-24, -140.91, 0.00
-23, -170.12, 0.00
-22, -114.58, 0.00
-21, -221.84, 0.00
-20, -91.24, 0.00
-19, -258.97, 0.00
-18, -75.41, 0.00
-17, -299.22, 0.00
-16, -61.49, 0.00
-15, -321.89, 0.00
-14, -57.33, 0.00
-13, -340.80, 0.00
-12, -61.40, 0.00
-11, -345.11, 0.00
-10, -72.22, 0.00
-9, -338.83, 0.00
-8, -96.94, 0.00
-7, -330.47, 0.00
-6, -123.25, 0.00
-5, -307.14, 0.00
-4, -166.99, 0.00
-3, -289.37, 0.00
-2, -213.46, 0.00
-1, -266.84, 0.00
0, -265.05, 0.00
-29, -234.96, 0.00
-28, -304.30, 0.00
-27, -205.05, 0.00
-26, -342.16, 0.00
-25, -177.72, 0.00
-24, -375.98, 0.00
-23, -158.50, 0.00
-22, -399.29, 0.00
-21, -141.31, 0.00
-20, -414.29, 0.00
-19, -134.56, 0.00
-18, -417.62, 0.00
-17, -134.11, 0.00
-16, -403.43, 0.00
-15, -134.00, 0.00
-14, -381.01, 0.00
-13, -155.41, 0.00
-12, -360.15, 0.00
-11, -179.78, 0.00
-10, -322.96, 0.00
-9, -210.37, 0.00
-8, -286.46, 0.00
-7, -243.97, 0.00
-6, -251.52, 0.00
-5, -285.21, 0.00
-4, -216.48, 0.00
-3, -320.50, 0.00
-2, -185.54, 0.00
-1, -359.15, 0.00
0, -160.60, 0.00
-29, -383.04, 0.00
-28, -139.94, 0.00
-27, -403.65, 0.00
-26, -131.61, 0.00
-25, -409.17, 0.00
-24, -121.10, 0.00
-23, -403.16, 0.00
-22, -130.47, 0.00
-21, -395.34, 0.00
-20, -144.82, 0.00
-19, -374.28, 0.00
-18, -171.12, 0.00
-17, -347.41, 0.00
-16, -199.47, 0.00
-15, -311.99, 0.00
-14, -237.26, 0.00
-13, -276.31, 0.00
-12, -274.01, 0.00
-11, -243.25, 0.00
-10, -316.55, 0.00
-9, -211.54, 0.00
-8, -353.07, 0.00
-7, -183.62, 0.00
-6, -386.46, 0.00
-5, -162.25, 0.00
-4, -408.99, 0.00
-3, -144.71, 0.00
-2, -419.45, 0.00
-1, -140.73, 0.00
0, -423.36, 0.00
-29, -136.99, 0.00
-28, -416.21, 0.00
-27, -149.76, 0.00
-26, -395.80, 0.00
-25, -164.91, 0.00
-24, -369.79, 0.00
-23, -195.11, 0.00
-22, -329.78, 0.00
-21, -217.26, 0.00
-20, -294.73, 0.00
-19, -256.75, 0.00
-18, -252.28, 0.00
-17, -280.63, 0.00
-16, -206.98, 0.00
-15, -316.97, 0.00
-14, -171.80, 0.00
-13, -344.26, 0.00
-12, -142.40, 0.00
-11, -114.26, 0.00
-10, -377.32, 0.00
-9, -98.48, 0.00
-8, -379.02, 0.00
-7, -93.23, 0.00
-6, -376.85, 0.00
-5, -91.89, 0.00
-4, -353.16, 0.00
-3, -105.79, 0.00
-2, -331.32, 0.00
-1, -126.58, 0.00
0, -300.09, 0.00
-29, -158.92, 0.00
-28, -266.16, 0.00
-27, -189.61, 0.00
-26, -232.01, 0.00
-25, -236.86, 0.00
-24, -191.09, 0.00
-23, -259.48, 0.00
-22, -147.01, 0.00
-21, -291.27, 0.00
-20, -107.62, 0.00
-19, -301.28, 0.00
-18, -66.00, 0.00
-17, -302.53, 0.00
-16, -29.84, 0.00
-15, -298.26, 0.00
-14, -4.96, 0.00
-13, -281.21, 0.00
-12, 8.65, 0.00
-11, -262.57, 0.00
-10, 13.61, 0.00
-9, -226.45, 0.00
-8, 4.54, 0.00
-7, -190.62, 0.00
-6, -7.89, 0.00
-5, -138.56, 0.00
-4, -25.62, 0.00
-3, -89.94, 0.00
-2, -43.52, 0.00
-1, -35.85, 0.00
0, -69.78, 0.00
-29, 14.37, 0.00
-28, -90.90, 0.00
-27, 56.51, 0.00
-26, -113.75, 0.00
-25, 103.00, 0.00
-24, -115.98, 0.00
-23, 138.58, 0.00
-22, -117.64, 0.00
-21, 166.45, 0.00
-20, -105.16, 0.00
-19, 187.53, 0.00
-18, -91.60, 0.00
-17, 190.68, 0.00
-16, -66.23, 0.00
-15, 187.17, 0.00
-14, -34.15, 0.00
-13, 167.68, 0.00
-12, 2.64, 0.00
-11, 148.10, 0.00
-10, 46.92, 0.00
-9, 119.40, 0.00
-8, 92.58, 0.00
-7, 95.53, 0.00
-6, 142.29, 0.00
-5, 68.87, 0.00
-4, 187.58, 0.00
-3, 42.07, 0.00
-2, 222.82, 0.00
-1, 20.88, 0.00
0, 257.29, 0.00
-29, 8.56, 0.00
-28, 278.46, 0.00
-27, 3.78, 0.00
-26, 292.16, 0.00
-25, 11.91, 0.00
-24, 302.66, 0.00
-23, 29.82, 0.00
-22, 296.07, 0.00
-21, 54.74, 0.00
-20, 290.68, 0.00
-19, 95.67, 0.00
-18, 267.86, 0.00
-17, 135.76, 0.00
-16, 244.84, 0.00
-15, 181.76, 0.00
