%OpenBCI Raw EEG Data
%
%Sample Rate = 250.0 Hz
%First Column = SampleIndex
%Other Columns = EEG data in microvolts
-29, 84792.34, 108628.17
-28, 65161.95, 83489.14
-27, 59106.45, 75716.46
-26, 68452.14, 87705.66
-25, 70581.50, 90436.42
-24, 62344.30, 79895.67
-23, 57696.71, 73947.23
-22, 56784.04, 72788.88
-21, 54148.61, 69429.67
-20, 52055.78, 66751.60
-19, 50621.60, 64909.21
-18, 49421.29, 63394.99
-17, 47789.21, 61300.32
-16, 45793.13, 58751.91
-15, 44741.04, 57391.16
-14, 44267.51, 56809.25
-13, 42779.54, 54899.25
-12, 39156.68, 50277.70
-11, 38010.88, 48804.92
-10, 35913.93, 46130.87
-9, 34333.75, 44112.01
-8, 33476.85, 43011.57
-7, 30334.22, 38988.25
-6, 29897.27, 38436.17
-5, 29216.10, 37566.84
-4, 27743.09, 35682.45
-3, 26431.25, 34002.05
-2, 25857.90, 33265.88
-1, 25258.36, 32508.02
0, 24070.52, 30983.09
-29, 22853.65, 29433.04
-28, 20648.23, 26605.86
-27, 19558.51, 25223.74
-26, 18846.32, 24299.56
-25, 18278.05, 23585.80
-24, 17476.36, 22546.92
-23, 16520.35, 21336.84
-22, 15805.88, 20408.68
-21, 15236.02, 19693.34
-20, 14546.85, 18800.09
-19, 13717.62, 17748.83
-18, 13027.15, 16855.74
-17, 10484.06, 13607.99
-16, 9942.08, 12916.85
-15, 8761.73, 11404.73
-14, 7646.58, 9976.34
-13, 7132.91, 9326.91
-12, 6585.72, 8619.14
-11, 6034.25, 7923.78
-10, 5555.73, 7300.55
-9, 5081.18, 6704.20
-8, 4600.10, 6074.38
-7, 4099.76, 5447.12
-6, 3658.42, 4867.78
-5, 3218.34, 4319.47
-4, 2787.91, 3755.25
-3, 2336.79, 3191.31
-2, 1930.74, 2658.47
-1, 1529.33, 2155.20
0, 1141.55, 1647.86
-29, 738.88, 1141.35
-28, 365.32, 655.29
-27, -0.02, 194.53
-26, -352.15, -262.34
-25, -710.09, -717.51
-24, -1052.14, -1158.02
-23, -1379.24, -1577.99
-22, -1702.73, -1989.77
-21, -2019.52, -2398.41
-20, -2333.07, -2794.73
-19, -2625.61, -3175.89
-18, -2920.52, -3546.15
-17, -3198.42, -3912.58
-16, -3484.17, -4268.31
-15, -3744.07, -4612.68
-14, -4013.39, -4945.26
-13, -4517.89, -5592.12
-12, -4747.22, -5901.44
-11, -4990.00, -6198.74
-10, -5208.87, -6492.22
-9, -5439.79, -6775.95
-8, -5646.25, -7052.20
-7, -5862.57, -7318.03
-6, -6057.12, -7578.36
-5, -6260.81, -7830.31
-4, -6446.44, -8075.39
-3, -6635.34, -8311.79
-2, -6811.16, -8541.63
-1, -6987.09, -8765.08
0, -7154.35, -8981.38
-29, -7315.61, -9190.46
-28, -7475.00, -9392.65
-27, -7624.16, -9589.55
-26, -7777.38, -9778.93
-25, -7914.75, -9963.29
-24, -8059.59, -10139.73
-23, -8185.41, -10312.33
-22, -8322.89, -10477.31
-21, -8437.20, -10638.18
-20, -8566.66, -10791.53
-19, -8672.50, -10941.47
-18, -9003.73, -11354.42
-17, -9094.12, -11483.23
-16, -9197.92, -11605.07
-15, -9281.99, -11724.18
-14, -9377.36, -11836.63
-13, -9456.04, -11945.75
-12, -9541.89, -12049.56
-11, -9614.60, -12149.45
-10, -9760.07, -12334.96
-9, -9827.77, -12422.09
-8, -9951.84, -12583.76
-7, -10013.16, -12657.99
-6, -10061.95, -12729.32
-5, -10118.95, -12795.72
-4, -10160.41, -12859.83
-3, -10213.67, -12919.02
-2, -10247.83, -12976.08
-1, -10297.92, -13028.20
0, -10327.09, -13079.50
-29, -10372.42, -13124.96
-28, -10396.55, -13169.71
-27, -10436.68, -13208.61
-26, -10454.58, -13246.65
-25, -10490.39, -13279.55
-24, -10504.87, -13311.40
-23, -10534.33, -13338.92
-22, -10547.00, -13365.18
-21, -10580.87, -13408.07
-20, -10607.06, -13440.21
-19, -10624.03, -13462.63
-18, -10628.05, -13470.61
-17, -10634.24, -13475.87
-16, -10632.86, -13480.00
-15, -10637.66, -13480.72
-14, -10631.07, -13480.45
-13, -10634.82, -13476.51
-12, -10622.60, -13472.40
-11, -10624.61, -13464.15
-10, -10607.87, -13456.20
-9, -10608.79, -13444.42
-8, -10588.53, -13432.75
-7, -10587.30, -13417.33
-6, -10564.10, -13402.37
-5, -10558.65, -13383.53
-4, -10532.66, -13364.67
-3, -10524.23, -13342.54
-2, -10498.08, -13320.41
-1, -10486.45, -13295.58
0, -10460.12, -13270.92
-29, -10443.58, -13243.50
-28, -10416.29, -13215.36
-27, -10394.01, -13184.96
-26, -10367.90, -13154.20
-25, -10341.21, -13121.59
-24, -10316.25, -13088.08
-23, -10285.38, -13053.46
-22, -10260.99, -13017.03
-21, -10225.94, -12980.01
-20, -10201.85, -12940.99
-19, -10163.99, -12902.54
-18, -10139.40, -12861.28
-17, -10097.40, -12820.65
-16, -10073.19, -12777.26
-15, -10028.78, -12734.75
-14, -10002.65, -12689.08
-13, -9957.08, -12645.14
-12, -9930.28, -12598.09
-11, -9883.36, -12552.40
-10, -9855.08, -12503.70
-9, -9808.37, -12456.25
-8, -9777.66, -12406.60
-7, -9729.85, -12357.12
-6, -9696.28, -12306.31
-5, -9649.90, -12255.37
-4, -9612.59, -12202.96
-3, -9568.92, -12151.08
-2, -9528.44, -12097.79
-1, -9485.21, -12044.19
0, -9398.10, -11934.62
-29, -9350.40, -11880.08
-28, -9310.89, -11823.65
-27, -9260.95, -11768.44
-26, -9169.22, -11654.31
-25, -9132.74, -11595.82
-24, -9077.78, -11539.02
-23, -9040.68, -11479.65
-22, -8984.30, -11422.28
-21, -8947.87, -11362.78
-20, -8891.28, -11304.93
-19, -8853.79, -11244.25
-18, -8797.71, -11185.59
-17, -8759.47, -11124.69
-16, -8703.05, -11065.32
-15, -8662.84, -11004.19
-14, -8608.91, -10944.33
-13, -8565.50, -10882.88
-12, -8512.75, -10821.91
-11, -8467.40, -10760.73
-10, -8416.44, -10699.18
-9, -8368.00, -10637.98
-8, -8320.57, -10576.24
-7, -8268.83, -10514.66
-6, -8223.94, -10452.64
-5, -8170.70, -10391.17
-4, -8127.32, -10327.94
-3, -8072.11, -10266.92
-2, -8030.53, -10203.91
-1, -7972.40, -10143.11
0, -7931.96, -10079.79
-29, -7873.76, -10018.92
-28, -7834.35, -9955.40
-27, -7775.03, -9893.93
-26, -7735.42, -9830.52
-25, -7676.88, -9769.50
-24, -7637.03, -9705.98
-23, -7580.57, -9644.67
-22, -7539.24, -9581.54
-21, -7483.12, -9520.10
-20, -7440.72, -9457.33
-19, -7386.24, -9395.49
-18, -7291.29, -9272.20
-17, -7243.48, -9210.01
-16, -7194.58, -9148.32
-15, -7145.25, -9086.79
-14, -7099.45, -9024.85
-13, -7047.66, -8963.65
-12, -7005.77, -8902.18
-11, -6951.53, -8841.79
-10, -6910.73, -8779.99
-9, -6815.40, -8658.75
-8, -6758.23, -8599.43
-7, -6720.27, -8538.16
-6, -6662.79, -8478.95
-5, -6625.12, -8418.07
-4, -6569.27, -8359.46
-3, -6532.36, -8298.78
-2, -6476.10, -8240.57
-1, -6438.46, -8180.87
0, -6383.43, -8123.05
-29, -6343.22, -8063.41
-28, -6290.70, -8005.70
-27, -6158.24, -7831.02
-26, -6111.77, -7773.91
-25, -6066.15, -7715.80
-24, -6022.65, -7658.31
-23, -5974.55, -7601.11
-22, -5934.21, -7543.76
-21, -5884.68, -7487.54
-20, -5845.94, -7430.30
-19, -5794.42, -7374.69
-18, -5757.63, -7318.12
-17, -5705.66, -7263.76
-16, -5618.18, -7153.38
-15, -5585.92, -7097.42
-14, -5532.79, -7043.64
-13, -5500.47, -6988.56
-12, -5447.59, -6935.48
-11, -5414.37, -6880.63
-10, -5363.86, -6827.85
-9, -5330.02, -6773.65
-8, -5281.36, -6721.17
-7, -5246.00, -6667.66
-6, -5162.05, -6563.05
-5, -5118.46, -6511.73
-4, -5079.28, -6460.28
-3, -5038.26, -6408.80
-2, -4996.28, -6357.86
-1, -4959.34, -6306.68
0, -4916.60, -6256.72
-29, -4882.18, -6206.23
-28, -4836.38, -6156.94
-27, -4804.66, -6106.63
-26, -4727.86, -6007.97
-25, -4679.78, -5959.82
-24, -4651.04, -5910.47
-23, -4603.48, -5863.35
-22, -4575.04, -5814.40
-21, -4528.40, -5768.16
-20, -4500.93, -5719.63
-19, -4454.48, -5673.43
-18, -4426.18, -5625.46
-17, -4380.90, -5579.78
-16, -4352.09, -5532.70
-15, -4309.80, -5487.44
-14, -4278.70, -5441.58
-13, -4239.14, -5396.81
-12, -4206.46, -5351.72
-11, -4169.25, -5307.26
-10, -4133.78, -5262.29
-9, -4100.67, -5218.15
-8, -4064.22, -5174.47
-7, -4033.24, -5130.55
-6, -3994.17, -5087.70
-5, -3966.45, -5044.01
-4, -3925.52, -5001.72
-3, -3900.38, -4958.62
-2, -3859.61, -4917.41
-1, -3793.81, -4833.77
0, -3770.09, -4790.92
-29, -3727.94, -4750.77
-28, -3705.23, -4708.77
-27, -3664.17, -4669.41
-26, -3601.38, -4588.99
-25, -3578.45, -4548.49
-24, -3540.36, -4509.96
-23, -3514.86, -4469.72
-22, -3453.12, -4392.30
-21, -3419.64, -4354.39
-20, -3390.76, -4316.21
-19, -3361.08, -4278.77
-18, -3329.74, -4241.04
-17, -3302.31, -4203.74
-16, -3269.90, -4166.88
-15, -3211.81, -4093.92
-14, -3190.40, -4056.71
-13, -3153.27, -4021.53
-12, -3133.40, -3985.18
-11, -3095.52, -3950.63
-10, -3077.23, -3914.44
-9, -3039.55, -3880.42
-8, -3022.96, -3844.59
-7, -2986.66, -3811.44
-6, -2969.56, -3776.10
-5, -2933.98, -3743.34
-4, -2881.47, -3675.90
-3, -2862.21, -3641.77
-2, -2830.87, -3609.78
-1, -2809.93, -3576.64
0, -2758.20, -3512.49
-29, -2731.47, -3480.79
-28, -2683.06, -3417.42
-27, -2656.75, -3386.78
-26, -2636.52, -3355.76
-25, -2542.69, -3234.79
-24, -2510.17, -3206.07
-23, -2494.86, -3175.36
-22, -2461.71, -3147.28
-21, -2448.34, -3117.26
-20, -2415.04, -3089.44
-19, -2402.90, -3060.11
-18, -2370.76, -3032.80
-17, -2357.39, -3003.65
-16, -2327.06, -2976.87
-15, -2313.99, -2948.55
-14, -2284.66, -2921.86
-13, -2242.44, -2867.57
-12, -2225.12, -2840.48
-11, -2201.31, -2814.49
-10, -2182.09, -2788.36
-9, -2161.08, -2762.50
-8, -2139.64, -2736.48
-7, -2122.77, -2710.66
-6, -2098.63, -2685.32
-5, -2083.67, -2659.63
-4, -2057.63, -2635.16
-3, -2044.98, -2609.74
-2, -2018.00, -2586.07
-1, -2008.08, -2560.68
0, -1979.63, -2537.12
-29, -1970.80, -2512.16
-28, -1941.45, -2488.91
-27, -1933.07, -2464.03
-26, -1904.66, -2441.95
-25, -1895.94, -2417.79
-24, -1869.66, -2395.95
-23, -1861.14, -2372.30
-22, -1835.35, -2350.67
-21, -1824.68, -2327.60
-20, -1800.10, -2305.83
-19, -1787.92, -2283.39
-18, -1767.11, -2262.33
-17, -1734.12, -2218.37
-16, -1716.73, -2197.11
-15, -1701.19, -2175.50
-14, -1682.64, -2154.91
-13, -1670.17, -2133.85
-12, -1650.01, -2113.94
-11, -1639.63, -2092.93
-10, -1616.14, -2073.57
-9, -1608.43, -2052.76
-8, -1584.11, -2034.01
-7, -1552.19, -1994.98
-6, -1546.63, -1974.62
-5, -1515.69, -1936.09
-4, -1491.60, -1918.63
-3, -1486.10, -1899.41
-2, -1462.68, -1881.61
-1, -1456.71, -1862.44
0, -1434.85, -1844.71
-29, -1408.41, -1808.93
-28, -1397.72, -1790.91
-27, -1382.48, -1773.88
-26, -1369.85, -1756.36
-25, -1355.48, -1739.05
-24, -1341.08, -1722.36
-23, -1329.46, -1705.08
-22, -1312.09, -1688.47
-21, -1304.11, -1671.49
-20, -1285.56, -1655.62
-19, -1258.72, -1623.34
-18, -1254.96, -1606.35
-17, -1233.57, -1591.60
-16, -1230.66, -1574.79
-15, -1209.07, -1560.51
-14, -1206.12, -1543.75
-13, -1181.96, -1513.73
-12, -1157.93, -1484.31
-11, -1137.61, -1470.59
-10, -1133.17, -1455.21
-9, -1115.11, -1441.55
-8, -1109.50, -1426.85
-7, -1086.70, -1398.95
-6, -1074.38, -1385.16
-5, -1054.80, -1358.00
-4, -1040.81, -1344.61
-3, -1034.17, -1330.89
-2, -1019.64, -1318.73
-1, -997.13, -1292.91
0, -994.21, -1279.10
-29, -975.05, -1266.78
-28, -973.44, -1252.93
-27, -954.78, -1241.73
-26, -955.00, -1228.12
-25, -935.69, -1217.01
-24, -935.62, -1203.69
-23, -917.14, -1192.80
-22, -916.98, -1179.93
-21, -899.10, -1169.22
-20, -897.94, -1156.61
-19, -881.64, -1145.37
-18, -878.69, -1133.01
-17, -864.95, -1122.24
-16, -860.61, -1110.52
-15, -849.17, -1099.62
-14, -841.52, -1088.26
-13, -832.51, -1077.11
-12, -823.28, -1066.54
-11, -817.54, -1055.56
-10, -805.69, -1045.32
-9, -802.47, -1034.44
-8, -787.70, -1024.69
-7, -786.56, -1013.45
-6, -769.59, -1003.95
-5, -754.15, -972.17
-4, -740.18, -952.65
-3, -722.01, -943.85
-2, -724.04, -933.10
-1, -709.56, -914.59
0, -694.58, -896.39
-29, -680.68, -887.90
-28, -679.00, -878.62
-27, -668.18, -869.86
-26, -665.25, -860.81
-25, -657.07, -852.23
-24, -650.21, -843.20
-23, -635.93, -825.92
-22, -634.07, -817.20
-21, -622.70, -809.11
-20, -608.48, -792.57
-19, -610.83, -783.81
-18, -595.81, -776.63
-17, -598.91, -767.74
-16, -584.05, -761.10
-15, -588.14, -752.20
-14, -571.69, -745.48
-13, -559.93, -730.41
-12, -562.95, -721.94
-11, -551.08, -707.66
-10, -538.32, -701.26
-9, -538.39, -693.46
-8, -528.08, -686.80
-7, -526.63, -679.47
-6, -518.23, -672.70
-5, -514.74, -665.57
-4, -509.80, -659.18
-3, -503.58, -652.67
-2, -500.39, -645.63
-1, -490.82, -639.22
0, -490.22, -631.75
-29, -478.64, -625.63
-28, -480.79, -618.61
-27, -468.05, -613.31
-26, -471.31, -606.02
-25, -461.21, -593.10
-24, -446.23, -587.90
-23, -450.92, -580.70
-22, -436.04, -575.74
-21, -441.07, -568.72
-20, -427.81, -564.00
-19, -431.79, -557.05
-18, -419.50, -552.29
-17, -410.15, -540.40
-16, -410.49, -534.23
-15, -402.82, -528.95
-14, -400.21, -522.96
-13, -394.96, -517.73
-12, -390.33, -512.46
-11, -387.74, -507.05
-10, -381.21, -496.25
-9, -372.54, -491.45
-8, -374.70, -485.55
-7, -368.18, -476.05
-6, -355.19, -471.98
-5, -360.13, -465.97
-4, -345.94, -462.01
-3, -352.44, -455.66
-2, -339.17, -451.97
-1, -345.49, -446.16
0, -332.75, -442.61
-29, -338.16, -436.53
-28, -326.02, -432.93
-27, -330.74, -427.77
-26, -320.57, -424.12
-25, -322.87, -419.23
-24, -315.49, -410.24
-23, -310.02, -406.24
-22, -308.39, -401.68
-21, -304.65, -397.26
-20, -299.11, -392.74
-19, -298.64, -388.03
-18, -291.80, -384.41
-17, -292.85, -379.55
-16, -284.47, -376.38
-15, -287.60, -371.42
-14, -276.27, -368.04
-13, -277.03, -356.06
-12, -264.38, -353.54
-11, -271.62, -348.62
-10, -266.14, -340.89
-9, -254.01, -338.07
-8, -259.46, -333.42
-7, -249.09, -331.12
-6, -252.42, -326.72
-5, -244.06, -324.14
-4, -246.99, -319.99
-3, -240.93, -317.08
-2, -241.51, -313.33
-1, -238.02, -310.33
0, -234.49, -307.00
-29, -232.32, -303.76
-28, -226.89, -300.70
-27, -229.66, -297.21
-26, -222.20, -294.24
-25, -215.67, -287.98
-24, -220.66, -284.16
-23, -209.57, -282.24
-22, -216.86, -278.17
-21, -205.68, -276.45
-20, -213.39, -272.74
-19, -201.26, -271.19
-18, -208.79, -267.39
-17, -197.05, -265.45
-16, -203.62, -261.45
-15, -193.48, -259.66
-14, -197.90, -255.79
-13, -188.49, -254.07
-12, -185.45, -248.98
-11, -186.93, -246.12
-10, -181.50, -243.72
-9, -179.62, -240.50
-8, -177.23, -237.76
-7, -173.87, -235.61
-6, -174.79, -232.59
-5, -168.26, -230.38
-4, -171.53, -227.38
-3, -163.30, -225.28
-2, -168.29, -222.11
-1, -165.51, -217.42
0, -154.36, -216.16
-29, -161.89, -212.95
-28, -150.49, -212.10
-27, -158.23, -208.74
-26, -146.67, -207.94
-25, -154.74, -204.72
-24, -143.99, -203.67
-23, -150.25, -200.25
-22, -141.42, -199.00
-21, -146.85, -196.07
-20, -142.29, -191.93
-19, -137.28, -190.44
-18, -138.09, -187.84
-17, -135.12, -186.21
-16, -134.00, -184.11
-15, -129.08, -180.47
-14, -131.88, -178.21
-13, -125.51, -176.98
-12, -130.02, -174.41
-11, -121.93, -173.38
-10, -127.85, -170.83
-9, -118.33, -170.01
-8, -125.68, -167.39
-7, -114.78, -166.43
-6, -123.29, -163.55
-5, -111.98, -162.72
-4, -119.45, -159.81
-3, -108.65, -159.08
-2, -116.12, -156.51
-1, -105.99, -155.55
0, -111.76, -152.73
-29, -103.11, -151.68
-28, -107.71, -149.26
-27, -101.68, -148.26
-26, -104.05, -146.02
-25, -100.92, -144.93
-24, -101.23, -143.21
-23, -99.80, -141.35
-22, -97.81, -140.32
-21, -99.78, -138.33
-20, -94.73, -137.17
-19, -97.61, -135.07
-18, -90.57, -134.27
-17, -96.58, -131.74
-16, -88.18, -131.23
-15, -96.38, -128.59
-14, -86.08, -127.94
-13, -94.53, -125.57
-12, -82.97, -125.46
-11, -92.25, -123.23
-10, -82.21, -123.29
-9, -90.57, -121.01
-8, -79.95, -120.63
-7, -86.81, -118.06
-6, -77.67, -117.50
-5, -84.29, -115.71
-4, -77.02, -115.04
-3, -81.90, -113.50
-2, -76.64, -112.76
-1, -78.57, -111.31
0, -75.93, -110.19
-29, -72.40, -106.75
-28, -75.50, -104.83
-27, -69.47, -104.23
-26, -74.12, -102.33
-25, -65.11, -101.75
-24, -72.58, -99.78
-23, -63.23, -99.69
-22, -71.84, -97.74
-21, -61.51, -97.68
-20, -69.72, -95.53
-19, -58.79, -95.60
-18, -67.73, -93.23
-17, -57.00, -93.30
-16, -66.18, -91.58
-15, -57.51, -91.51
-14, -64.89, -89.79
-13, -56.80, -89.56
-12, -61.27, -87.42
-11, -59.08, -85.88
-10, -55.34, -84.89
-9, -56.68, -83.95
-8, -55.90, -83.08
-7, -53.38, -82.10
-6, -55.28, -80.98
-5, -50.27, -80.31
-4, -54.29, -78.90
-3, -47.56, -78.59
-2, -54.18, -76.89
-1, -45.82, -77.16
0, -53.87, -75.48
-29, -44.17, -75.97
-28, -52.66, -74.30
-27, -42.58, -74.72
-26, -50.98, -72.73
-25, -40.32, -72.91
-24, -49.11, -70.88
-23, -39.29, -71.28
-22, -38.96, -69.89
-21, -45.64, -68.40
-20, -39.38, -68.46
-19, -43.38, -67.10
-18, -39.47, -66.81
-17, -41.69, -66.32
-16, -38.82, -65.47
-15, -38.18, -64.84
-14, -39.54, -64.02
-13, -36.34, -63.66
-12, -39.72, -62.67
-11, -33.77, -62.54
-10, -39.65, -61.27
-9, -31.72, -61.22
-8, -38.67, -59.86
-7, -30.06, -60.28
-6, -38.33, -58.76
-5, -27.89, -59.30
-4, -37.19, -57.62
-3, -27.09, -58.14
-2, -36.30, -56.33
-1, -26.51, -56.82
0, -36.01, -55.48
-29, -26.93, -55.57
-28, -33.37, -53.71
-27, -25.95, -53.82
-26, -32.32, -52.53
-25, -27.40, -52.50
-24, -30.71, -51.54
-23, -28.16, -51.25
-22, -28.23, -50.38
-21, -27.74, -49.82
-20, -25.97, -49.60
-19, -28.30, -48.93
-18, -22.69, -48.66
-17, -27.27, -47.74
-16, -19.94, -47.59
-15, -26.35, -46.49
-14, -17.32, -46.54
-13, -25.79, -45.17
-12, -15.74, -45.75
-11, -24.65, -44.12
-10, -14.42, -44.61
-9, -23.76, -43.21
-8, -12.70, -43.70
-7, -22.51, -42.33
-6, -12.63, -43.30
-5, -20.23, -41.78
-4, -11.91, -42.13
-3, -18.73, -41.04
-2, -12.99, -41.40
-1, -18.51, -40.41
0, -14.35, -40.64
-29, -16.99, -40.17
-28, -15.80, -39.88
-27, -15.00, -39.32
-26, -16.16, -38.91
-25, -14.04, -38.96
-24, -18.46, -38.09
-23, -13.70, -38.18
-22, -20.90, -37.28
-21, -13.37, -37.28
-20, -20.12, -36.01
-19, -11.62, -36.77
-18, -20.23, -35.49
-17, -10.48, -35.96
-16, -20.50, -34.65
-15, -10.75, -35.79
-14, -20.65, -34.20
-13, -10.73, -35.11
-12, -19.18, -33.86
-11, -10.26, -34.24
-10, -16.92, -33.15
-9, -9.92, -33.80
-8, -10.35, -33.06
-7, -12.96, -32.01
-6, -10.42, -32.03
-5, -12.27, -31.54
-4, -12.00, -31.11
-3, -10.73, -30.85
-2, -13.34, -30.09
-1, -9.34, -30.20
0, -13.17, -29.15
-29, -7.06, -29.48
-28, -14.01, -28.41
-27, -6.50, -29.06
-26, -15.47, -27.63
-25, -6.48, -28.52
-24, -15.56, -27.25
-23, -4.31, -28.14
-22, -12.61, -26.67
-21, -2.10, -27.58
-20, -11.76, -26.38
-19, -10.04, -25.48
-18, -2.68, -26.06
-17, -9.03, -25.10
-16, -2.75, -25.62
-15, -9.01, -24.86
-14, -7.76, -24.79
-13, -5.65, -24.86
-12, -5.50, -24.86
-11, -7.47, -24.63
-10, -4.49, -24.61
-9, -8.16, -23.80
-8, -2.84, -24.16
-7, -9.23, -23.42
-6, -1.63, -23.76
-5, -9.34, -22.66
-4, -0.27, -23.40
-3, -8.18, -22.04
-2, 1.88, -22.73
-1, -8.38, -21.48
0, 1.74, -22.28
-29, -7.76, -21.17
-28, 2.26, -22.15
-27, -7.44, -20.92
-26, 0.80, -21.93
-25, -7.02, -20.79
-24, -0.07, -21.46
-23, -6.35, -20.68
-22, -1.41, -20.79
-21, -3.98, -20.32
-20, -4.18, -19.87
-19, -3.31, -20.03
-18, -5.63, -19.09
-17, -0.89, -19.07
-16, -6.62, -18.57
-15, 0.00, -18.93
-14, -6.91, -18.48
-13, 0.98, -19.02
-12, -7.24, -17.59
-11, 2.12, -18.55
-10, -7.02, -17.01
-9, 2.77, -17.90
-8, 3.42, -17.64
-7, -6.24, -16.27
-6, 2.17, -17.43
-5, -6.46, -16.41
-4, 1.83, -17.19
-3, -5.16, -16.16
-2, 1.39, -16.83
-1, -4.00, -16.27
0, -0.98, -16.76
-29, -3.98, -16.43
-28, -2.55, -16.23
-27, -1.77, -15.83
-26, -2.73, -15.56
-25, -0.36, -15.80
-24, -4.40, -15.56
-23, 0.02, -16.14
-22, -6.75, -15.24
-21, -6.64, -14.77
-20, 2.53, -15.58
-19, -6.71, -14.51
-18, 2.66, -15.29
-17, -7.69, -14.08
-16, 2.86, -15.22
-15, -6.41, -14.08
-14, 4.36, -15.22
-13, -5.14, -14.28
-12, 2.62, -15.13
-11, -4.27, -13.88
-10, 3.06, -14.39
-9, -2.57, -13.50
-8, 2.64, -13.72
-7, -1.41, -13.14
-6, 1.92, -12.90
-5, 0.98, -12.70
-4, 0.69, -12.81
-3, 2.73, -12.52
-2, -1.34, -12.47
-1, -2.12, -11.85
0, 4.20, -12.45
-29, -2.75, -11.35
-28, 5.57, -12.29
-27, -2.70, -10.89
-26, 6.77, -11.96
-25, -2.70, -10.57
-24, 6.50, -11.51
-23, -3.91, -10.13
-22, 5.90, -11.09
-21, -3.60, -9.72
-20, 5.14, -10.91
-19, -2.91, -9.70
-18, 5.72, -10.51
-17, -0.74, -9.68
-16, 6.08, -10.15
-15, 1.99, -9.66
-14, 4.90, -10.08
-13, 2.39, -9.66
-12, 3.20, -9.75
-11, 4.54, -9.50
-10, 2.91, -9.01
-9, 5.10, -9.28
-8, 0.36, -8.92
-7, 4.94, -9.57
-6, -1.45, -8.76
-5, 5.68, -9.68
-4, -1.70, -8.34
-3, 6.75, -9.23
-2, -2.37, -7.93
-1, 7.82, -9.10
0, 9.45, -8.90
-29, -0.65, -8.02
-28, 7.82, -9.01
-27, -1.79, -7.42
-26, 6.59, -8.40
-25, -0.63, -7.04
-24, 6.35, -7.93
-23, 1.16, -7.24
-22, 1.41, -7.71
-21, 4.27, -7.69
-20, 4.74, -7.24
-19, 4.40, -7.06
-18, 6.24, -6.86
-17, 3.60, -6.68
-16, 8.29, -6.91
-15, 2.88, -6.19
-14, 10.55, -6.46
-13, 3.22, -5.50
-12, 10.48, -6.33
-11, 0.74, -5.63
-10, 9.70, -6.62
-9, 9.92, -6.48
-8, 1.30, -4.94
-7, 10.46, -6.19
-6, 1.30, -5.01
-5, 10.08, -6.06
-4, 1.61, -5.12
-3, 8.87, -5.83
-2, 2.26, -5.01
-1, 7.73, -5.74
0, 2.48, -5.07
-29, 6.03, -5.50
-28, 3.49, -5.43
-27, 4.14, -5.41
-26, 5.14, -5.36
-25, 4.54, -5.01
-24, 7.93, -5.43
-23, 3.42, -5.21
-22, 8.09, -5.99
-21, 1.92, -5.10
-20, 8.54, -5.90
-19, -0.34, -4.96
-18, 8.87, -5.88
-17, -1.27, -5.10
-16, -0.42, -5.14
-15, 8.92, -6.71
-14, -1.23, -5.68
-13, 7.93, -6.93
-12, -0.92, -5.74
-11, 8.65, -6.44
-10, 1.92, -5.43
-9, 9.01, -6.53
-8, 3.20, -5.79
-7, 7.73, -6.39
-6, 3.24, -6.15
-5, 4.69, -6.73
-4, 3.00, -6.55
-3, 1.88, -7.04
-2, 5.59, -7.71
-1, 1.36, -7.20
0, 7.85, -7.67
-29, -0.11, -6.79
-28, 8.27, -7.49
-27, -1.18, -6.50
-26, 7.71, -7.49
-25, -2.50, -6.50
-24, 6.97, -7.69
-23, -3.26, -6.91
-22, 7.49, -7.93
-21, -1.18, -6.44
-20, 0.40, -6.57
-19, 8.05, -7.64
-18, 1.05, -6.84
-17, 7.17, -7.20
-16, 1.43, -6.71
-15, 4.98, -6.84
-14, 1.97, -6.79
-13, 3.33, -6.79
-12, 3.22, -6.79
-11, 1.61, -6.46
-10, 4.20, -6.66
-9, 0.60, -5.95
-8, 5.95, -6.55
-7, -0.89, -5.57
-6, 7.67, -6.24
-5, -0.09, -5.28
-4, 8.56, -6.35
-3, -0.13, -4.94
-2, 9.81, -5.88
-1, 0.04, -4.67
0, 0.87, -4.67
-29, 9.50, -6.30
-28, 0.74, -5.12
-27, 9.57, -5.97
-26, 1.77, -5.19
-25, 8.94, -5.83
-24, 3.49, -5.07
-23, 8.29, -5.72
-22, 6.28, -4.92
-21, 7.80, -5.34
-20, 7.09, -5.05
-19, 6.19, -5.32
-18, 8.78, -5.10
-17, 5.57, -4.69
-16, 9.39, -5.41
-15, 4.11, -5.03
-14, 11.02, -5.79
-13, 3.93, -4.98
-12, 12.47, -5.39
-11, 3.17, -4.38
-10, 11.71, -5.59
-9, 1.61, -4.54
-8, 12.18, -5.95
-7, 3.08, -4.63
-6, 12.27, -5.77
-5, 3.08, -4.58
-4, 11.40, -5.79
-3, 3.24, -4.92
-2, 10.55, -5.90
-1, 4.45, -4.92
0, 9.50, -5.25
-29, 4.69, -4.58
-28, 6.71, -4.02
-27, 8.00, -3.89
-26, 8.76, -3.96
-25, 7.64, -3.46
-24, 5.05, -3.46
-23, 5.77, -3.22
-22, 13.21, -3.78
-21, 4.78, -2.97
-20, 14.26, -3.96
-19, 3.82, -2.86
-18, 13.66, -4.07
-17, 4.22, -2.77
-16, 13.93, -3.69
-15, 4.63, -2.35
-14, 14.37, -3.17
-13, 4.85, -2.44
-12, 13.14, -3.53
-11, 5.68, -2.35
-10, 12.25, -2.93
-9, 11.76, -2.50
-8, 8.16, -2.19
-7, 9.61, -2.86
-6, 9.16, -2.62
-5, 8.99, -2.35
-4, 10.84, -2.48
-3, 8.36, -2.26
-2, 12.52, -3.15
-1, 7.35, -2.26
0, 7.20, -2.17
-29, 15.42, -2.82
-28, 6.50, -2.03
-27, 15.29, -3.26
-26, 16.65, -3.22
-25, 7.80, -1.70
-24, 7.55, -1.83
-23, 16.83, -2.73
-22, 9.03, -1.56
-21, 16.27, -2.30
-20, 14.60, -1.77
-19, 9.21, -1.52
-18, 12.56, -1.68
-17, 10.71, -1.03
-16, 11.71, -1.01
-15, 11.42, -1.07
-14, 9.97, -1.12
-13, 13.19, -1.45
-12, 8.72, -1.01
-11, 14.73, -1.52
-10, 7.85, -0.87
-9, 15.80, -1.72
-8, 8.58, -0.87
-7, 18.13, -1.39
-6, 8.63, -0.38
-5, 18.31, -1.52
-4, 7.80, -0.69
-3, 17.32, -1.94
-2, 8.00, -1.07
-1, 17.10, -1.61
0, 8.56, -0.94
-29, 14.93, -1.36
-28, 9.79, -0.78
-27, 15.11, -1.30
-26, 11.69, -1.05
-25, 13.63, -1.39
-24, 11.60, -0.92
-23, 10.55, -0.98
-22, 12.76, -0.94
-21, 10.35, -0.51
-20, 8.78, -0.87
-19, 14.35, -1.86
-18, 7.00, -0.96
-17, 15.71, -1.56
-16, 7.69, -0.49
-15, 17.23, -1.18
-14, 7.35, -0.51
-13, 6.71, -0.36
-12, 7.20, -0.11
-11, 16.56, -0.74
-10, 8.02, -0.02
-9, 16.83, -0.56
-8, 9.10, 0.11
-7, 14.66, -0.25
-6, 14.77, 0.18
-5, 12.70, 0.29
-4, 14.26, 0.02
-3, 13.77, -0.22
-2, 11.94, -0.02
-1, 15.27, -0.20
0, 10.51, 0.22
-29, 16.25, -0.42
-28, 9.61, 0.04
-27, 16.47, -0.60
-26, 9.16, 0.04
-25, 17.12, -0.98
-24, 8.02, -0.22
-23, 18.55, -0.94
-22, 8.47, 0.04
-21, 18.08, -0.92
-20, 8.74, 0.09
-19, 17.46, -1.41
-18, 8.85, -0.27
-17, 18.15, -0.72
-16, 10.89, 0.09
-15, 17.99, -0.54
-14, 13.10, 0.02
-13, 18.46, -0.47
-12, 15.53, -0.25
-11, 17.43, -0.76
-10, 16.76, -0.67
-9, 15.85, -0.92
-8, 17.34, -1.10
-7, 14.73, -0.45
-6, 19.60, -0.69
-5, 12.85, -0.51
-4, 19.71, -1.14
-3, 11.60, -0.38
-2, 19.13, -1.16
-1, 10.08, -0.11
0, 19.18, -0.94
-29, 10.28, 0.22
-28, 19.89, -0.76
-27, 10.46, 0.25
-26, 21.03, -0.42
-25, 11.60, 0.58
-24, 21.01, -0.42
-23, 12.67, 0.60
-22, 19.78, -0.09
-21, 12.54, 0.60
-20, 17.86, -0.04
-19, 16.12, -0.20
-18, 13.95, 0.00
-17, 14.06, -0.07
-16, 14.51, -0.04
-15, 12.03, 0.00
-14, 15.40, -0.16
-13, 11.91, 0.29
-12, 17.41, -0.09
-11, 11.71, 0.98
-10, 9.43, 1.14
-9, 19.00, 0.42
-8, 9.39, 1.32
-7, 19.00, 0.16
-6, 9.54, 1.25
-5, 19.56, 0.42
-4, 9.32, 1.48
-3, 18.57, 0.60
-2, 17.57, 0.22
-1, 9.77, 1.25
0, 17.57, 0.72
-29, 11.85, 1.41
-28, 15.33, 0.72
-27, 13.99, 1.41
-26, 12.72, 1.81
-25, 17.10, 1.36
-24, 11.04, 1.68
-23, 17.90, 1.25
-22, 9.92, 1.81
-21, 17.55, 0.85
-20, 9.39, 1.81
-19, 18.95, 0.58
-18, 9.19, 1.54
-17, 19.49, 0.31
-16, 9.86, 1.56
-15, 18.48, 0.18
-14, 8.49, 1.14
-13, 17.79, 0.22
-12, 16.32, -0.07
-11, 9.50, 0.76
-10, 14.89, -0.02
-9, 9.70, 0.45
-8, 13.99, 0.13
-7, 11.87, 0.11
-6, 13.39, 0.02
-5, 13.28, 0.40
-4, 12.09, 0.38
-3, 16.29, -0.11
-2, 9.57, 0.22
-1, 16.52, -0.40
0, 8.83, 0.76
-29, 17.55, -0.04
-28, 9.12, 0.85
-27, 18.44, -0.22
-26, 8.20, 0.51
-25, 19.22, -0.42
-24, 9.32, 0.63
-23, 17.59, -0.31
-22, 9.14, 0.36
-21, 17.26, -0.49
-20, 9.03, 0.16
-19, 16.36, -0.67
-18, 10.57, 0.16
-17, 15.22, -0.13
-16, 12.00, 0.04
-15, 14.08, -0.02
-14, 13.39, 0.31
-13, 12.09, -0.02
-12, 13.88, -0.04
-11, 11.53, 0.56
-10, 15.80, -0.02
-9, 10.33, 0.42
-8, 8.45, 0.38
-7, 16.72, -0.29
-6, 7.80, 0.67
-5, 17.61, -0.02
-4, 7.73, 0.69
-3, 17.70, -0.27
-2, 7.55, 0.76
-1, 17.30, -0.38
0, 8.07, 0.60
-29, 16.76, -0.47
-28, 8.58, 0.51
-27, 16.56, -0.16
-26, 9.92, 0.56
-25, 15.13, -0.29
-24, 10.62, 0.20
-23, 14.44, -0.02
-22, 11.80, 0.25
-21, 12.94, 0.31
-20, 13.48, 0.25
-19, 11.35, 0.18
-18, 14.55, 0.04
-17, 10.93, 0.58
-16, 15.87, -0.11
-15, 8.67, 0.67
-14, 15.76, -0.09
-13, 8.14, 0.65
-12, 16.70, -0.22
-11, 7.78, 1.01
-10, 17.84, -0.02
-9, 7.47, 1.07
-8, 16.96, -0.07
-7, 7.89, 0.80
-6, 17.97, -0.40
-5, 8.43, 0.45
-4, 10.21, 0.40
-3, 16.94, -0.07
-2, 10.46, 0.18
-1, 15.47, -0.11
0, 12.23, 0.47
-29, 14.42, 0.13
-28, 13.99, 0.47
-27, 13.01, 0.45
-26, 13.93, 0.11
-25, 10.55, 0.16
-24, 13.93, -0.36
-23, 9.37, 0.25
-22, 14.84, -0.76
-21, 7.80, 0.18
-20, 16.52, -0.36
-19, 8.02, 0.60
-18, 17.75, -0.38
-17, 7.58, 0.42
-16, 16.07, -1.05
-15, 6.35, 0.07
-14, 16.16, -0.85
-13, 6.91, 0.31
-12, 16.63, -0.31
-11, 8.47, 0.76
-10, 16.41, 0.00
-9, 9.81, 0.85
-8, 15.60, 0.07
-7, 10.77, 0.40
-6, 14.26, -0.07
-5, 11.33, 0.13
-4, 12.67, 0.16
-3, 13.28, 0.31
-2, 11.65, 0.54
-1, 15.15, 0.31
0, 11.27, 0.72
-29, 16.07, 0.16
-28, 8.96, 0.74
-27, 16.03, -0.20
-26, 8.31, 0.94
-25, 16.27, -0.22
-24, 7.93, 1.01
-23, 17.17, 0.38
-22, 6.48, 1.34
-21, 16.54, 0.47
-20, 6.17, 1.03
-19, 16.88, 0.09
-18, 8.00, 1.18
-17, 16.05, 0.20
-16, 7.78, 1.01
-15, 13.59, -0.11
-14, 7.82, 0.29
-13, 12.25, -0.36
-12, 9.34, -0.04
-11, 11.44, -0.20
-10, 10.10, -0.07
-9, 10.10, 0.00
-8, 13.08, 0.31
-7, 10.66, 0.74
-6, 14.51, 0.29
-5, 8.27, 0.60
-4, 14.06, -0.02
-3, 6.57, 0.83
-2, 14.22, 0.18
-1, 6.03, 0.98
0, 15.11, 0.20
-29, 5.54, 1.14
-28, 14.75, -0.42
-27, 5.23, 0.60
-26, 15.65, -0.22
-25, 5.68, 0.56
-24, 14.53, -0.29
-23, 6.97, 0.83
-22, 14.06, -0.18
-21, 6.62, 0.38
-20, 12.36, -0.27
-19, 7.80, 0.63
-18, 11.13, 0.34
-17, 9.28, 0.65
-16, 11.22, 0.85
-15, 11.47, 0.67
-14, 9.10, 0.45
-13, 12.27, 0.13
-12, 7.31, 0.51
-11, 13.01, 0.00
-10, 7.29, 0.85
-9, 14.06, 0.13
-8, 5.79, 0.92
-7, 14.93, 0.09
-6, 4.81, 0.98
-5, 13.68, -0.16
-4, 13.52, -0.02
-3, 3.71, 1.12
-2, 12.79, -0.04
-1, 3.40, 1.10
0, 11.67, 0.04
-29, 3.46, 0.89
-28, 9.72, -0.02
-27, 7.44, -0.13
-26, 3.91, 0.42
-25, 5.39, -0.02
-24, 4.74, 0.36
-23, 4.81, 0.27
-22, 5.63, -0.09
-21, 2.59, 0.16
-20, 6.33, -0.20
-19, 0.58, -0.04
-18, 6.66, -0.74
-17, 0.00, 0.38
-16, 7.73, -0.65
-15, -1.32, 0.40
-14, 8.11, -0.54
-13, -1.77, 0.56
-12, 8.38, -0.74
-11, -0.54, 0.74
-10, 8.85, -0.54
-9, -0.45, 0.34
-8, 8.61, -0.65
-7, 0.63, 0.36
-6, 7.96, -0.65
-5, 1.14, 0.36
-4, 6.73, -0.40
-3, 1.32, -0.29
-2, 4.07, -0.78
-1, 1.63, -0.47
0, 3.53, -0.34
-29, 3.53, -0.27
-28, 2.62, -0.22
-27, 44.93, -3.00
-26, -25.21, 4.56
-25, -37.19, 6.30
-24, -13.37, 3.76
-23, 9.07, 0.34
-22, -11.89, 1.92
-21, -9.34, 2.06
-20, -10.62, 2.68
-19, -8.23, 2.12
-18, -8.94, 2.30
-17, 1.10, 1.70
-16, -2.73, 2.28
-15, -12.07, 3.51
-14, -5.34, 2.77
-13, 2.91, 1.72
-12, 4.52, 1.45
-11, -12.94, 3.15
-10, -5.65, 2.06
-9, -1.86, 1.63
-8, 7.09, 0.58
-7, -3.35, 2.19
-6, -3.13, 2.17
-5, 9.83, 0.45
-4, -9.05, 2.24
-3, -2.28, 1.36
-2, -4.31, 1.72
-1, 8.23, 0.09
0, -4.78, 1.65
-29, -0.16, 0.76
-28, -1.59, 1.10
-27, 8.09, 0.00
-26, -0.54, 0.49
-25, -0.47, 0.40
-24, 3.55, -0.34
-23, 3.35, -0.20
-22, -0.22, 0.69
-21, 4.69, 0.27
-20, 3.33, 0.29
-19, 8.05, -0.42
-18, 0.11, 0.45
-17, 8.09, -0.65
-16, 1.45, -0.34
-15, 11.78, -1.05
-14, 0.22, 0.00
-13, 9.63, -1.16
-12, 1.45, 0.11
-11, 11.04, -0.98
-10, 0.94, 0.11
-9, 9.68, -0.76
-8, 2.10, 0.36
-7, 10.84, -0.58
-6, 2.28, 0.40
-5, 8.76, -0.27
-4, 2.35, 0.04
-3, 7.35, -0.58
-2, 5.12, -0.02
-1, 6.93, -0.36
0, 6.35, -0.49
-29, 6.03, -0.34
-28, 8.00, -0.54
-27, 4.40, -0.27
-26, 3.33, -0.18
-25, 1.86, -0.13
-24, 10.37, -1.18
-23, 3.08, -0.16
-22, 13.05, -1.23
-21, 3.24, -0.27
-20, 13.41, -1.27
-19, 2.93, -0.40
-18, 12.38, -1.68
-17, 3.22, -0.29
-16, 11.40, -1.41
-15, 3.38, -0.54
-14, 11.56, -1.32
-13, 3.44, -1.12
-12, 9.10, -1.92
-11, 5.95, -1.05
-10, 7.73, -1.74
-9, 6.35, -1.27
-8, 7.22, -1.12
-7, 7.42, -1.30
-6, 6.37, -0.87
-5, 10.17, -1.34
-4, 5.63, -0.94
-3, 10.82, -1.54
-2, 4.94, -0.92
-1, 12.23, -1.70
0, 4.07, -0.80
-29, 12.81, -1.81
-28, 12.25, -2.32
-27, 3.53, -1.21
-26, 13.81, -2.44
-25, 4.18, -1.05
-24, 14.39, -2.35
-23, 5.83, -1.48
-22, 13.77, -2.32
-21, 6.03, -1.50
-20, 12.43, -2.32
-19, 6.37, -1.41
-18, 10.93, -2.03
-17, 8.18, -1.83
-16, 10.26, -1.83
-15, 9.63, -1.83
-14, 11.27, -2.17
-13, 8.54, -1.48
-12, 12.43, -2.03
-11, 6.64, -1.61
-10, 13.01, -2.41
-9, 5.61, -1.68
-8, 14.01, -2.41
-7, 5.19, -1.27
-6, 14.69, -2.57
-5, 4.83, -1.70
-4, 14.95, -3.00
-3, 5.54, -1.79
-2, 16.25, -2.62
-1, 6.73, -1.41
0, 15.22, -2.55
-29, 7.06, -1.81
-28, 12.99, -2.64
-27, 6.19, -1.72
-26, 12.36, -2.24
-25, 7.64, -1.81
-24, 10.95, -2.41
-23, 9.97, -2.37
-22, 9.97, -2.21
-21, 8.11, -1.88
-20, 11.58, -2.10
-19, 6.68, -1.77
-18, 12.29, -2.39
-17, 6.26, -1.68
-16, 13.88, -2.35
-15, 5.41, -1.45
-14, 14.19, -2.01
-13, 4.47, -0.92
-12, 13.57, -2.37
-11, 3.93, -1.07
-10, 14.84, -2.41
-9, 4.72, -1.54
-8, 14.53, -2.48
-7, 5.48, -1.56
-6, 14.06, -2.66
-5, 7.17, -1.52
-4, 13.81, -2.06
-3, 8.54, -1.16
-2, 12.54, -1.70
-1, 9.12, -1.30
0, 10.68, -1.88
-29, 11.29, -1.65
-28, 10.89, -1.54
-27, 12.36, -1.90
-26, 9.39, -1.39
-25, 14.04, -1.97
-24, 7.98, -1.39
-23, 15.53, -2.30
-22, 8.69, -1.36
-21, 16.63, -2.53
-20, 6.71, -1.83
-19, 16.12, -2.86
-18, 6.24, -1.74
-17, 16.74, -2.57
-16, 7.11, -1.61
-15, 16.41, -2.88
-14, 7.17, -1.81
-13, 15.83, -2.97
-12, 7.73, -1.94
-11, 16.07, -2.24
-10, 9.70, -1.56
-9, 11.56, -1.70
-8, 14.75, -1.97
-7, 12.70, -1.86
-6, 12.72, -1.97
-5, 13.41, -2.21
-4, 11.87, -2.24
-3, 15.24, -2.46
-2, 10.77, -1.77
-1, 17.17, -2.30
0, 10.51, -1.70
-29, 18.53, -2.39
-28, 19.13, -2.12
-27, 9.83, -0.94
-26, 19.09, -2.19
-25, 8.78, -1.32
-24, 18.48, -2.39
-23, 18.66, -2.03
-22, 10.51, -0.60
-21, 18.40, -1.63
-20, 10.30, -0.83
-19, 17.21, -1.18
-18, 10.66, -0.63
-17, 14.60, -1.23
-16, 11.27, -0.40
-15, 13.25, -0.92
-14, 12.72, -0.96
-13, 12.72, -0.65
-12, 14.08, -0.87
-11, 10.24, -0.40
-10, 15.09, -0.42
-9, 8.83, 0.16
-8, 14.98, -0.76
-7, 7.89, -0.02
-6, 16.32, -1.01
-5, 7.58, -0.18
-4, 17.55, -1.21
-3, 7.93, -0.07
-2, 17.64, -1.54
-1, 7.26, -0.38
0, 17.30, -1.39
-29, 8.76, -0.38
-28, 17.59, -1.27
-27, 8.58, -0.40
-26, 16.03, -1.48
-25, 9.48, -0.56
-24, 14.06, -1.50
-23, 10.46, -1.03
-22, 13.10, -1.41
-21, 11.15, -1.01
-20, 10.62, -1.05
-19, 11.73, -1.18
-18, 9.66, -1.05
-17, 12.54, -1.79
-16, 8.18, -1.25
-15, 14.35, -1.50
-14, 7.58, -0.76
-13, 15.11, -1.65
-12, 7.17, -1.21
-11, 15.27, -2.79
-10, 5.43, -1.70
-9, 15.56, -2.79
-8, 4.67, -1.92
-7, 4.49, -1.90
-6, 5.61, -1.77
-5, 14.31, -2.41
-4, 6.77, -1.63
-3, 11.82, -2.35
-2, 6.17, -1.61
-1, 10.42, -2.03
0, 7.33, -1.61
-29, 9.23, -1.94
-28, 9.16, -1.48
-27, 8.63, -1.74
-26, 10.08, -2.06
-25, 7.15, -1.59
-24, 11.33, -2.26
-23, 5.45, -1.56
-22, 3.60, -1.65
-21, 11.38, -2.70
-20, 2.48, -1.86
-19, 12.65, -2.73
-18, 2.55, -1.81
-17, 12.41, -3.17
-16, -27.31, -78707.73
-15, 39.20, -74553.20
-14, 1.03, -107365.77
-13, -47.88, -109753.22
-12, -17.59, -76504.63
-11, -42.62, -91373.90
-10, -35.83, -80723.72
-9, -50.27, -74713.63
-8, -49.24, -77179.13
-7, -57.33, -77706.39
-6, -47.88, -73543.16
-5, -71.64, -70147.37
-4, -71.24, -68921.62
-3, -74.21, -67442.49
-2, -84.36, -64049.59
-1, -87.42, -61933.37
0, -89.50, -59358.94
-29, -78.97, -57985.18
-28, -95.55, -57395.03
-27, -103.27, -55465.60
-26, -102.75, -52587.66
-25, -104.94, -50794.63
-24, -116.83, -49306.76
-23, -113.35, -46604.25
-22, -114.53, -44934.67
-21, -114.02, -44564.70
-20, -127.92, -43452.43
-19, -122.62, -41132.28
-18, -127.61, -39387.50
-17, -121.03, -38829.09
-16, -137.26, -37950.06
-15, -130.24, -36045.87
-14, -138.85, -34348.35
-13, -129.66, -33604.70
-12, -144.62, -32838.17
-11, -138.45, -31297.80
-10, -146.90, -29730.97
-9, -139.79, -28859.25
-8, -151.88, -28131.03
-7, -147.61, -26874.62
-6, -154.18, -25476.98
-5, -149.56, -24544.40
-4, -154.70, -23821.35
-3, -154.25, -22772.51
-2, -156.40, -21549.18
-1, -156.71, -20612.33
0, -156.62, -19888.20
-29, -161.74, -18986.60
-28, -157.76, -17923.53
-27, -162.99, -17021.79
-26, -157.98, -16304.19
-25, -166.97, -15507.55
-24, -159.61, -14582.72
-23, -168.64, -13739.21
-22, -160.28, -13040.41
-21, -160.62, -11512.24
-20, -170.52, -10737.58
-19, -161.80, -10069.24
-18, -171.17, -9412.54
-17, -163.03, -8698.20
-16, -171.46, -7994.73
-15, -163.82, -7365.61
-14, -171.93, -6762.05
-13, -166.74, -6126.57
-12, -171.39, -5491.76
-11, -167.95, -4907.28
-10, -170.90, -4352.02
-9, -169.94, -3782.99
-8, -169.85, -3211.99
-7, -171.80, -2674.54
-6, -168.69, -2164.79
-5, -173.20, -1653.00
-4, -168.20, -1140.14
-3, -175.17, -649.85
-2, -168.11, -183.62
-1, -176.20, 277.74
0, -167.71, 738.01
-29, -176.27, 1182.54
-28, -165.89, 1607.05
-27, -174.79, 2023.15
-26, -164.64, 2435.92
-25, -174.75, 2836.99
-24, -165.51, 3221.69
-23, -174.43, 3596.51
-22, -165.38, 3966.27
-21, -173.43, 4326.65
-20, -165.34, 4673.62
-19, -171.77, 5010.48
-18, -167.15, 5341.15
-17, -169.85, 5663.73
-16, -166.48, 5975.16
-15, -166.83, 6276.93
-14, -166.68, 6571.90
-13, -165.89, 6859.53
-12, -168.64, 7137.72
-11, -164.44, 7406.96
-10, -170.32, 7669.24
-9, -163.03, 7924.65
-8, -169.38, 8171.89
-7, -161.18, 8410.98
-6, -169.18, 8643.24
-5, -159.17, 8868.99
-4, -169.27, 9087.53
-3, -158.65, 9298.68
-2, -167.19, 9503.29
-1, -157.07, 9701.77
0, -165.65, 9893.75
-29, -155.72, 10079.09
-28, -163.15, 10258.24
-27, -154.05, 10431.65
-26, -160.66, 10599.15
-25, -153.67, 10760.60
-24, -158.79, 10916.34
-23, -154.45, 11066.68
-22, -155.41, 11211.61
-21, -153.91, 11351.06
-20, -152.64, 11485.24
-19, -153.47, 11614.39
-18, -149.96, 11738.58
-17, -147.07, 11972.13
-16, -152.68, 12081.83
-15, -145.11, 12186.97
-14, -152.57, 12287.56
-13, -143.52, 12383.69
-12, -152.37, 12475.56
-11, -141.53, 12563.20
-10, -150.07, 12646.71
-9, -138.85, 12726.14
-8, -148.15, 12801.65
-7, -138.20, 12873.28
-6, -146.16, 12941.14
-5, -137.19, 13005.27
-4, -144.35, 13065.78
-3, -136.61, 13122.77
-2, -141.49, 13176.31
-1, -136.37, 13226.44
0, -139.12, 13273.27
-29, -135.97, 13316.88
-28, -136.57, 13357.33
-27, -134.94, 13394.71
-26, -133.35, 13460.46
-25, -128.84, 13488.99
-24, -133.73, 13514.69
-23, -132.30, 13557.96
-22, -124.01, 13575.64
-21, -132.17, 13590.75
-20, -121.73, 13603.38
-19, -130.33, 13613.57
-18, -119.51, 13621.38
-17, -128.46, 13626.87
-16, -118.62, 13630.11
-15, -127.67, 13631.14
-14, -118.71, 13630.03
-13, -125.89, 13626.81
-12, -116.50, 13621.55
-11, -123.16, 13614.29
-10, -116.92, 13605.10
-9, -120.32, 13593.99
-8, -115.94, 13581.08
-7, -118.51, 13566.34
-6, -115.92, 13549.85
-5, -114.89, 13531.68
-4, -115.13, 13511.83
-3, -110.95, 13490.37
-2, -114.08, 13467.35
-1, -109.10, 13442.81
0, -106.98, 13389.27
-29, -114.02, 13360.40
-28, -103.60, 13330.13
-27, -111.98, 13298.55
-26, -100.92, 13265.69
-25, -110.40, 13231.56
-24, -100.31, 13196.22
-23, -109.43, 13159.70
-22, -98.86, 13122.04
-21, -106.35, 13083.28
-20, -97.01, 13043.43
-19, -103.56, 13002.52
-18, -96.67, 12960.61
-17, -101.97, 12917.74
-16, -95.78, 12873.91
-15, -99.51, 12829.16
-14, -96.13, 12783.52
-13, -96.20, 12737.01
-12, -95.96, 12689.69
-11, -96.16, 12592.64
-10, -91.93, 12542.97
-9, -96.31, 12492.61
-8, -88.18, 12441.54
-7, -93.85, 12389.77
-6, -84.87, 12337.40
-5, -93.01, 12284.38
-4, -83.77, 12230.76
-3, -92.72, 12176.58
-2, -90.95, 12066.57
-1, -79.89, 12010.80
0, -87.93, 11954.52
-29, -78.14, 11897.79
-28, -85.76, 11840.61
-27, -77.47, 11782.99
-26, -83.46, 11724.99
-25, -78.05, 11666.58
-24, -82.95, 11607.82
-23, -78.23, 11548.70
-22, -79.37, 11489.24
-21, -77.20, 11429.47
-20, -76.78, 11369.42
-19, -77.94, 11309.06
-18, -75.55, 11248.45
-17, -79.51, 11187.58
-16, -72.87, 11126.50
-15, -78.16, 11065.19
-14, -70.43, 11003.65
-13, -77.25, 10941.96
-12, -68.20, 10880.09
-11, -65.58, 10755.86
-10, -65.33, 10631.11
-9, -74.23, 10568.55
-8, -63.72, 10505.92
-7, -72.35, 10443.20
-6, -63.30, 10380.42
-5, -70.45, 10317.56
-4, -63.03, 10254.67
-3, -68.82, 10191.72
-2, -61.98, 10128.76
-1, -64.95, 10065.79
0, -61.89, 10002.81
-29, -62.36, 9939.82
-28, -61.74, 9876.85
-27, -59.50, 9813.91
-26, -62.34, 9750.99
-25, -57.44, 9688.12
-24, -62.23, 9625.31
-23, -54.94, 9562.54
-22, -61.44, 9499.85
-21, -52.82, 9437.24
-20, -60.73, 9374.70
-19, -50.69, 9312.25
-18, -59.57, 9249.91
-17, -48.32, 9187.66
-16, -57.29, 9125.55
-15, -47.27, 9063.54
-14, -56.84, 9001.65
-13, -47.68, 8939.91
-12, -55.16, 8878.31
-11, -47.25, 8816.85
-10, -53.55, 8755.54
-9, -46.87, 8694.38
-8, -52.46, 8633.38
-7, -47.54, 8572.56
-6, -50.65, 8511.90
-5, -49.08, 8451.44
-4, -48.59, 8391.16
-3, -49.53, 8331.05
-2, -46.94, 8271.15
-1, -50.76, 8211.45
0, -46.51, 8151.93
-29, -52.08, 8092.63
-28, -45.37, 8033.55
-27, -53.11, 7974.68
-26, -44.95, 7916.00
-25, -55.16, 7857.58
-24, -45.22, 7799.37
-23, -54.56, 7741.39
-22, -44.46, 7683.63
-21, -52.17, 7511.82
-20, -43.85, 7455.02
-19, -50.89, 7398.47
-18, -43.74, 7342.19
-17, -50.09, 7286.15
-16, -44.66, 7230.36
-15, -48.46, 7174.84
-14, -46.04, 7119.59
-13, -44.70, 7009.84
-12, -42.54, 6955.37
-11, -45.04, 6901.17
-10, -45.02, 6793.57
-9, -38.74, 6740.19
-8, -45.42, 6687.06
-7, -36.55, 6634.24
-6, -45.80, 6581.67
-5, -45.28, 6477.38
-4, -35.05, 6425.66
-3, -44.61, 6374.23
-2, -34.06, 6323.06
-1, -43.21, 6272.19
0, -34.33, 6221.61
-29, -43.09, 6171.32
-28, -35.63, 6121.29
-27, -41.91, 6071.56
-26, -35.09, 6022.12
-25, -39.88, 5972.97
-24, -35.23, 5924.11
-23, -36.68, 5875.54
-22, -36.43, 5827.26
-21, -35.94, 5779.27
-20, -36.93, 5731.57
-19, -33.71, 5684.16
-18, -36.39, 5637.02
-17, -29.97, 5590.19
-16, -34.87, 5543.66
-15, -35.09, 5451.46
-14, -25.88, 5405.79
-13, -34.27, 5360.42
-12, -33.01, 5270.54
-11, -22.35, 5226.04
-10, -31.99, 5181.83
-9, -22.15, 5137.91
-8, -31.23, 5094.27
-7, -21.90, 5050.94
-6, -21.61, 4965.10
-5, -26.82, 4922.61
-4, -23.13, 4880.44
-3, -26.60, 4838.53
-2, -23.04, 4796.91
-1, -23.04, 4755.56
0, -22.91, 4714.52
-29, -21.26, 4673.75
-28, -23.65, 4633.27
-27, -20.16, 4593.06
-26, -24.88, 4553.14
-25, -17.72, 4513.51
-24, -24.74, 4474.15
-23, -16.38, 4435.08
-22, -24.61, 4396.27
-21, -14.80, 4357.74
-20, -23.87, 4319.50
-19, -12.90, 4281.54
-18, -22.60, 4243.84
-17, -12.81, 4206.42
-16, -21.95, 4169.27
-15, -13.93, 4132.41
-14, -21.32, 4095.80
-13, -12.96, 4059.48
-12, -19.62, 4023.40
-11, -12.94, 3987.62
-10, -18.31, 3952.08
-9, -14.22, 3916.83
-8, -16.65, 3881.83
-7, -15.40, 3812.63
-6, -16.74, 3778.41
-5, -13.50, 3744.45
-4, -17.19, 3710.77
-3, -11.04, 3677.33
-2, -17.23, 3644.16
-1, -9.39, 3611.24
0, -17.55, 3578.58
-29, -9.01, 3546.15
-28, -17.64, 3514.01
-27, -8.65, 3482.09
-26, -18.04, 3450.42
-25, -7.51, 3419.01
-24, -16.29, 3387.85
-23, -6.46, 3356.92
-22, -14.44, 3326.25
-21, -5.12, 3295.81
-20, -12.52, 3265.61
-19, -5.74, 3235.66
-18, -10.89, 3205.96
-17, -7.26, 3176.47
-16, -10.75, 3147.24
-15, -7.93, 3118.22
-14, -7.67, 3089.46
-13, -7.47, 3060.91
-12, -5.72, 3032.62
-11, -8.02, 3004.52
-10, -4.74, 2976.67
-9, -9.92, 2949.07
-8, -2.08, 2921.66
-7, -8.74, 2894.48
-6, 0.11, 2867.55
-5, -8.36, 2840.82
-4, 0.58, 2814.31
-3, -8.27, 2788.02
-2, -8.34, 2736.10
-1, 1.43, 2710.46
0, -7.38, 2685.05
-29, 2.24, 2659.83
-28, -5.83, 2634.82
-27, 2.68, 2610.04
-26, -3.96, 2585.47
-25, 2.21, 2561.08
-24, -2.77, 2536.92
-23, 0.87, 2512.96
-22, -2.44, 2489.18
-21, -1.12, 2465.62
-20, -0.56, 2442.26
-19, -1.21, 2419.11
-18, 1.10, 2396.15
-17, -2.28, 2373.38
-16, 2.95, 2350.80
-15, -3.44, 2328.43
-14, 4.09, 2306.25
-13, -3.98, 2284.26
-12, 4.27, 2262.44
-11, -5.30, 2240.83
-10, 4.87, 2219.42
-9, -6.03, 2198.16
-8, 4.38, 2177.10
-7, -5.50, 2156.23
-6, 3.08, 2135.55
-5, -5.32, 2115.03
-4, 2.95, 2094.69
-3, -4.58, 2074.55
-2, 2.73, 2054.57
-1, -4.02, 2034.77
0, 1.25, 2015.14
-29, -2.53, 1995.68
-28, -0.96, 1976.41
-27, -2.12, 1957.30
-26, -3.51, 1900.97
-25, 0.98, 1882.53
-24, -3.53, 1864.25
-23, 1.68, 1846.12
-22, -5.97, 1828.17
-21, 1.39, 1810.38
-20, -7.09, 1792.74
-19, 2.64, 1775.29
-18, -7.42, 1757.96
-17, 3.29, 1740.80
-16, 2.10, 1706.94
-15, -7.24, 1690.24
-14, 1.81, 1673.68
-13, -6.37, 1657.29
-12, 1.43, 1641.02
-11, -6.37, 1624.93
-10, -0.78, 1608.97
-9, -5.48, 1593.17
-8, -2.01, 1577.50
-7, -4.05, 1561.96
-6, -3.26, 1546.58
-5, -2.73, 1531.34
-4, -4.74, 1516.23
-3, -0.51, 1501.28
-2, -4.38, 1486.44
-1, 0.87, 1471.75
0, -5.45, 1457.20
-29, 1.07, 1442.76
-28, -7.22, 1428.48
-27, -6.84, 1400.29
-26, 2.82, 1386.41
-25, -7.02, 1372.64
-24, 3.22, 1358.99
-23, -6.44, 1345.49
-22, 3.89, 1332.10
-21, -4.56, 1318.84
-20, 3.98, 1305.70
-19, -3.08, 1292.67
-18, 5.36, 1279.79
-17, 0.38, 1267.01
-16, 5.28, 1254.36
-15, 1.39, 1241.82
-14, 2.48, 1229.41
-13, 2.17, 1217.10
-12, 1.05, 1204.92
-11, 3.17, 1192.85
-10, 0.45, 1180.89
-9, 5.01, 1169.04
-8, 0.20, 1157.31
-7, 7.20, 1145.68
-6, -0.47, 1134.17
-5, 7.89, 1122.77
-4, -1.12, 1111.49
-3, -0.85, 1089.20
-2, 9.25, 1078.23
-1, -0.72, 1067.36
0, 10.10, 1056.59
-29, 1.36, 1045.93
-28, 10.55, 1035.35
-27, 2.08, 1024.89
-26, 8.99, 1014.52
-25, 1.81, 1004.26
-24, 7.51, 994.09
-23, 3.26, 984.04
-22, 6.71, 974.04
-21, 4.07, 964.19
-20, 5.48, 954.40
-19, 5.39, 944.70
-18, 3.31, 935.11
-17, 6.55, 925.61
-16, 6.82, 906.88
-15, 0.60, 897.65
-14, 7.09, 888.50
-13, -0.58, 879.45
-12, 7.73, 870.49
-11, -0.83, 861.61
-10, 9.32, 852.81
-9, -0.47, 844.11
-8, 9.43, 835.49
-7, -0.85, 826.95
-6, 8.05, 818.50
-5, -1.56, 810.12
-4, 6.97, 801.82
-3, -1.48, 793.62
-2, 5.61, 785.48
-1, 1.48, 761.57
0, 4.22, 753.75
-29, 3.71, 746.01
-28, 3.08, 738.35
-27, 4.60, 730.77
-26, 0.98, 723.24
-25, 5.28, 715.79
-24, -0.80, 708.44
-23, 6.08, 701.13
-22, -1.34, 693.91
-21, 5.79, 686.76
-20, -3.42, 679.67
-19, -3.87, 665.72
-18, 7.00, 658.84
-17, -2.95, 652.04
-16, 6.37, 645.29
-15, -2.97, 638.63
-14, 5.03, 632.02
-13, -3.02, 625.47
-12, 5.39, 619.01
-11, -1.36, 612.59
-10, 4.16, 606.25
-9, -0.07, 599.97
-8, 3.98, 593.73
-7, 1.99, 587.56
-6, 3.04, 581.48
-5, 3.55, 575.42
-4, 1.81, 569.46
-3, 5.28, 563.53
-2, 0.89, 557.68
-1, 6.50, 551.86
0, 0.25, 546.12
-29, 7.73, 540.44
-28, 0.40, 534.81
-27, 9.05, 529.24
-26, 0.07, 523.72
-25, -0.51, 512.86
-24, 1.21, 502.20
-23, 11.11, 496.95
-22, 2.39, 491.76
-21, 9.99, 486.62
-20, 1.68, 481.52
-19, 8.94, 476.49
-18, 3.04, 471.51
-17, 4.96, 461.68
-16, 6.57, 456.85
-15, 5.01, 452.06
-14, 5.30, 447.33
-13, 7.11, 442.63
-12, 4.45, 437.98
-11, 8.56, 433.38
-10, 2.70, 428.84
-9, 8.69, 424.33
-8, 1.36, 419.88
-7, 9.57, 415.45
-6, 0.83, 411.09
-5, 10.48, 406.76
-4, 0.98, 402.49
-3, 11.31, 398.24
-2, 1.77, 394.04
-1, 10.86, 389.90
0, 1.86, 385.79
-29, 10.64, 381.72
-28, 3.22, 377.70
-27, 11.18, 373.70
-26, 9.90, 365.85
-25, 5.14, 361.99
-24, 9.12, 358.16
-23, 7.42, 354.39
-22, 8.99, 350.63
-21, 9.63, 346.92
-20, 8.18, 343.26
-19, 11.11, 339.61
-18, 7.13, 336.04
-17, 12.94, 332.46
-16, 6.79, 328.95
-15, 13.68, 325.46
-14, 6.53, 322.00
-13, 15.09, 318.60
-12, 5.32, 315.20
-11, 14.62, 311.87
-10, 4.63, 308.57
-9, 14.28, 305.28
-8, 4.58, 302.04
-7, 14.48, 298.82
-6, 5.52, 295.65
-5, 13.90, 292.52
-4, 6.97, 289.39
-3, 12.52, 286.33
-2, 7.04, 283.26
-1, 11.00, 280.25
0, 8.45, 277.27
-29, 10.33, 274.32
-28, 9.70, 271.39
-27, 10.39, 265.63
-26, 7.22, 262.81
-25, 11.51, 260.00
-24, 5.45, 257.22
-23, 11.53, 254.47
-22, 3.98, 251.77
-21, 12.63, 249.07
-20, 4.78, 246.41
-19, 14.31, 243.77
-18, 4.98, 241.18
-17, 13.75, 238.58
-16, 4.14, 236.03
-15, 13.68, 233.51
-14, 4.34, 231.01
-13, 12.83, 228.55
-12, 4.20, 226.09
-11, 11.13, 223.67
-10, 4.00, 221.26
-9, 9.81, 218.89
-8, 5.10, 216.54
-7, 9.14, 214.22
-6, 7.73, 211.92
-5, 8.96, 209.66
-4, 9.81, 207.40
-3, 6.75, 205.17
-2, 9.41, 202.98
-1, 5.23, 200.79
0, 10.53, 198.64
-29, 4.20, 196.49
-28, 11.44, 194.39
-27, 3.13, 192.29
-26, 12.14, 190.21
-25, 2.24, 188.18
-24, 12.52, 186.15
-23, 2.41, 184.16
-22, 12.36, 182.17
-21, 2.88, 180.20
-20, 12.09, 178.26
-19, 1.97, 176.33
-18, 10.30, 174.43
-17, 2.86, 172.56
-16, 10.15, 170.70
-15, 5.23, 168.85
-14, 9.61, 167.03
-13, 6.03, 165.22
-12, 8.07, 163.44
-11, 6.66, 161.67
-10, 5.90, 159.93
-9, 7.96, 158.21
-8, 3.93, 156.48
-7, 8.90, 154.79
-6, 4.22, 153.11
-5, 9.81, 151.46
-4, 3.22, 149.82
-3, 12.09, 148.19
-2, 2.32, 146.61
-1, 11.47, 145.02
0, 1.94, 143.43
-29, 12.58, 141.89
-28, 3.08, 140.35
-27, 14.28, 138.83
-26, 4.96, 137.33
-25, 14.33, 135.83
-24, 5.54, 134.36
-23, 12.90, 132.90
-22, 6.03, 131.45
-21, 11.94, 130.02
-20, 7.58, 128.61
-19, 11.38, 127.23
-18, 9.70, 125.84
-17, 9.21, 124.48
-16, 9.77, 123.11
-15, 11.04, 120.45
-14, 6.93, 119.13
-13, 12.79, 117.84
-12, 6.33, 116.56
-11, 14.01, 115.29
-10, 6.53, 114.04
-9, 15.49, 112.79
-8, 6.46, 111.58
-7, 16.09, 110.35
-6, 5.63, 109.14
-5, 15.53, 107.96
-4, 5.68, 106.77
-3, 15.87, 105.61
-2, 15.60, 103.33
-1, 8.49, 102.19
0, 15.09, 101.07
-29, 9.48, 99.98
-28, 14.08, 98.88
-27, 10.51, 97.81
-26, 12.45, 96.74
-25, 10.73, 95.69
-24, 10.19, 94.64
-23, 12.45, 93.61
-22, 8.69, 92.58
-21, 13.84, 91.58
-20, 8.85, 90.57
-19, 15.33, 89.56
-18, 7.47, 88.60
-17, 16.65, 87.62
-16, 7.60, 86.66
-15, 16.56, 85.72
-14, 7.76, 84.78
-13, 16.92, 83.84
-12, 7.09, 82.92
-11, 17.10, 82.01
-10, 7.09, 81.11
-9, 15.69, 80.22
-8, 7.49, 79.35
-7, 14.69, 78.48
-6, 8.43, 77.63
-5, 12.70, 76.78
-4, 7.44, 75.93
-3, 10.80, 75.10
-2, 8.38, 74.27
-1, 9.05, 73.45
0, 10.19, 72.64
-29, 7.15, 71.84
-28, 10.39, 71.06
-27, 7.06, 70.27
-26, 12.94, 69.51
-25, 6.88, 68.73
-24, 14.62, 67.97
-23, 15.00, 66.50
-22, 6.03, 65.76
-21, 15.31, 65.04
-20, 5.65, 64.33
-19, 14.82, 63.61
-18, 5.50, 62.92
-17, 14.46, 62.23
-16, 5.57, 61.53
-15, 13.79, 60.86
-14, 6.77, 60.19
-13, 13.52, 59.52
-12, 7.35, 58.87
-11, 11.78, 58.23
-10, 7.87, 57.58
-9, 9.72, 56.93
-8, 10.24, 56.30
-7, 9.10, 55.70
-6, 8.20, 54.47
-5, 13.23, 53.87
-4, 7.33, 53.26
-3, 15.11, 52.68
-2, 7.13, 52.10
-1, 14.26, 51.52
0, 5.07, 50.96
-29, 14.19, 50.38
-28, 15.42, 49.29
-27, 5.52, 48.75
-26, 15.29, 48.19
-25, 5.32, 47.68
-24, 6.55, 46.63
-23, 14.33, 46.09
-22, 8.02, 45.60
-21, 12.65, 45.08
-20, 12.70, 44.10
-19, 10.35, 43.61
-18, 11.53, 43.12
-17, 11.69, 42.65
-16, 10.59, 42.18
-15, 14.10, 41.71
-14, 9.75, 41.24
-13, 15.38, 40.79
-12, 8.40, 40.32
-11, 15.33, 39.88
-10, 15.65, 39.00
-9, 6.68, 38.56
-8, 16.50, 38.13
-7, 7.11, 37.71
-6, 16.43, 37.31
-5, 5.83, 36.88
-4, 15.20, 36.48
-3, 7.13, 36.08
-2, 15.42, 35.67
-1, 8.43, 35.27
0, 15.27, 34.87
-29, 8.83, 34.49
-28, 13.72, 34.11
-27, 10.59, 33.73
-26, 11.35, 32.97
-25, 10.82, 32.61
-24, 13.05, 32.25
-23, 9.88, 31.90
-22, 14.26, 31.54
-21, 9.81, 31.18
-20, 15.87, 30.85
-19, 8.52, 30.49
-18, 16.41, 30.15
-17, 7.44, 29.82
-16, 17.48, 29.48
-15, 7.44, 29.15
-14, 17.48, 28.83
-13, 7.76, 28.50
-12, 17.41, 28.19
-11, 8.74, 27.87
-10, 17.97, 27.56
-9, 10.04, 27.27
-8, 17.68, 26.96
-7, 16.34, 26.35
-6, 12.85, 26.06
-5, 15.11, 25.77
-4, 13.95, 25.48
-3, 14.80, 25.19
-2, 14.86, 24.92
-1, 13.25, 24.63
0, 15.69, 24.36
-29, 10.64, 24.10
-28, 17.37, 23.83
-27, 10.28, 23.56
-26, 17.23, 23.29
-25, 9.59, 23.02
-24, 18.93, 22.78
-23, 9.54, 22.51
-22, 19.65, 22.26
-21, 10.19, 22.02
-20, 19.74, 21.77
-19, 9.37, 21.52
-18, 19.51, 21.28
-17, 10.17, 21.06
-16, 18.35, 20.81
-15, 11.69, 20.59
-14, 18.46, 20.34
-13, 12.47, 20.12
-12, 16.05, 19.89
-11, 12.25, 19.67
-10, 14.13, 19.45
-9, 14.06, 19.22
-8, 14.28, 19.02
-7, 13.01, 18.60
-6, 17.66, 18.37
-5, 11.85, 18.17
-4, 17.90, 17.97
-3, 10.17, 17.77
-2, 18.93, 17.57
-1, 10.30, 17.37
0, 20.63, 17.19
-29, 11.29, 16.99
-28, 21.21, 16.79
-27, 10.82, 16.61
-26, 20.14, 16.43
-25, 12.07, 16.23
-24, 21.30, 16.05
-23, 13.43, 15.87
-22, 21.03, 15.69
-21, 13.61, 15.51
-20, 18.71, 15.33
-19, 14.93, 15.18
-18, 17.93, 15.00
-17, 15.89, 14.66
-16, 16.00, 14.51
-15, 13.23, 14.33
-14, 17.79, 14.17
-13, 12.87, 14.01
-12, 17.55, 13.86
-11, 10.59, 13.70
-10, 17.93, 13.55
-9, 9.70, 13.39
-8, 18.93, 13.25
-7, 19.56, 12.94
-6, 9.34, 12.81
-5, 19.00, 12.65
-4, 8.85, 12.52
-3, 17.05, 12.38
-2, 8.20, 12.23
-1, 16.41, 12.09
0, 9.23, 11.96
-29, 16.47, 11.82
-28, 11.06, 11.69
-27, 15.42, 11.56
-26, 12.27, 11.42
-25, 13.19, 11.31
-24, 13.17, 11.18
-23, 12.11, 11.04
-22, 13.70, 10.93
-21, 10.75, 10.80
-20, 14.77, 10.68
-19, 8.87, 10.55
-18, 15.89, 10.44
-17, 8.20, 10.33
-16, 16.16, 10.19
-15, 6.10, 10.08
-14, 5.86, 9.86
-13, 15.04, 9.75
-12, 5.41, 9.63
-11, 14.71, 9.52
-10, 5.43, 9.41
-9, 14.28, 9.32
-8, 6.44, 9.21
-7, 13.05, 9.10
-6, 5.90, 9.01
-5, 10.68, 8.90
-4, 7.09, 8.81
-3, 10.89, 8.69
-2, 9.77, 8.61
-1, 9.92, 8.49
0, 10.13, 8.40
-29, 7.58, 8.31
-28, 10.75, 8.23
-27, 6.06, 8.11
-26, 11.78, 8.02
-25, 5.01, 7.93
-24, 13.21, 7.85
-23, 4.87, 7.76
-22, 14.57, 7.67
-21, 4.14, 7.58
-20, 13.66, 7.51
-19, 4.05, 7.42
-18, 14.06, 7.33
-17, 4.34, 7.24
-16, 14.01, 7.17
-15, 5.48, 7.09
-14, 13.50, 7.00
-13, 6.03, 6.93
-12, 12.03, 6.84
-11, 6.19, 6.77
-10, 10.73, 6.68
-9, 8.31, 6.62
-8, 10.06, 6.55
-7, 9.07, 6.46
-6, 7.73, 6.39
-5, 9.77, 6.33
-4, 7.26, 6.26
-3, 12.54, 6.17
-2, 6.68, 6.10
-1, 13.68, 6.03
0, 6.12, 5.97
-29, 13.55, 5.90
-28, 3.93, 5.83
-27, 13.14, 5.77
-26, 3.33, 5.70
-25, 13.50, 5.63
-24, 4.00, 5.57
-23, 12.94, 5.52
-22, 3.84, 5.45
-21, 11.76, 5.39
-20, 2.95, 5.32
-19, 9.43, 5.25
-18, 2.64, 5.21
-17, 8.49, 5.14
-16, 4.31, 5.10
-15, 7.62, 5.03
-14, 6.19, 4.96
-13, 6.44, 4.92
-12, 7.15, 4.85
-11, 4.96, 4.81
-10, 8.07, 4.74
-9, 2.91, 4.69
-8, 8.94, 4.65
-7, 2.57, 4.58
-6, 10.93, 4.54
-5, 1.90, 4.49
-4, 0.49, 4.38
-3, 9.50, 4.34
-2, 8.90, 4.22
-1, -1.10, 4.18
0, 7.58, 4.14
-29, -1.32, 4.09
-28, 7.49, 4.05
-27, -0.13, 4.00
-26, 5.74, 3.96
-25, 0.51, 3.91
-24, 4.34, 3.87
-23, 2.24, 3.82
-22, 5.01, 3.78
-21, 2.77, 3.69
-20, 5.12, 3.64
-19, 1.03, 3.60
-18, 5.79, 3.55
-17, 0.76, 3.53
-16, 7.29, 3.49
-15, -0.11, 3.44
-14, 7.67, 3.40
-13, -1.68, 3.35
-12, 7.87, 3.33
-11, -2.30, 3.29
-10, 8.14, 3.24
-9, -1.23, 3.22
-8, 8.00, 3.17
-7, -1.50, 3.13
-6, 7.89, 3.11
-5, -1.05, 3.06
-4, 6.44, 3.04
-3, 0.18, 3.00
-2, 5.97, 2.97
-1, 1.68, 2.93
0, 4.18, 2.91
-29, 2.12, 2.86
-28, 1.94, 2.84
-27, 2.26, 2.77
-26, 0.76, 2.70
-25, 6.17, 2.66
-24, -0.83, 2.64
-23, 7.55, 2.62
-22, -0.58, 2.57
-21, 8.07, 2.55
-20, -1.21, 2.53
-19, 7.80, 2.48
-18, -1.05, 2.46
-17, 9.01, 2.44
-16, -0.51, 2.41
-15, 8.49, 2.37
-14, -0.20, 2.35
-13, 7.55, 2.32
-12, 0.00, 2.30
-11, 7.17, 2.28
-10, 1.16, 2.24
-9, 5.70, 2.21
-8, 2.82, 2.19
-7, 3.93, 2.17
-6, 3.35, 2.15
-5, 2.39, 2.12
-4, 4.25, 2.10
-3, 1.07, 2.08
-2, 6.06, 2.06
-1, 0.54, 2.03
0, 7.73, 1.99
-29, -0.34, 1.97
-28, 7.80, 1.94
-27, -2.06, 1.92
-26, 7.73, 1.90
-25, -0.96, 1.88
-24, 8.69, 1.86
-23, -0.42, 1.86
-22, 8.94, 1.83
-21, -1.03, 1.81
-20, 8.36, 1.79
-19, 0.34, 1.77
-18, 7.53, 1.74
-17, 1.05, 1.72
-16, 7.33, 1.70
-15, 2.77, 1.68
-14, 6.55, 1.65
-13, 5.43, 1.63
-12, 5.59, 1.63
-11, 7.40, 1.61
-10, 4.81, 1.59
-9, 8.69, 1.56
-8, 4.47, 1.54
-7, 10.80, 1.54
-6, 3.62, 1.52
-5, 10.84, 1.50
-4, 2.55, 1.48
-3, 11.27, 1.45
-2, 2.26, 1.45
-1, 12.54, 1.43
0, 2.62, 1.41
-29, 12.38, 1.39
-28, 3.13, 1.39
-27, 12.34, 1.36
-26, 3.46, 1.34
-25, 11.67, 1.34
-24, 3.62, 1.32
-23, 10.10, 1.30
-22, 5.21, 1.30
-21, 9.37, 1.27
-20, 7.44, 1.25
-19, 8.65, 1.25
-18, 9.41, 1.23
-17, 9.48, 1.21
-16, 11.80, 1.21
-15, 7.80, 1.18
-14, 12.67, 1.16
-13, 7.02, 1.16
-12, 12.99, 1.14
-11, 5.32, 1.14
-10, 14.73, 1.12
-9, 5.30, 1.10
-8, 15.09, 1.10
-7, 5.57, 1.07
-6, 16.23, 1.07
-5, 4.81, 1.05
-4, 14.31, 1.05
-3, 5.79, 1.03
-2, 14.51, 1.03
-1, 7.24, 1.01
0, 14.51, 1.01
-29, 8.54, 0.98
-28, 13.66, 0.96
-27, 9.75, 0.96
-26, 12.90, 0.94
-25, 11.78, 0.94
-24, 11.38, 0.92
-23, 11.94, 0.92
-22, 9.19, 0.92
-21, 13.30, 0.89
-20, 8.20, 0.89
-19, 14.89, 0.87
-18, 8.43, 0.87
-17, 16.38, 0.85
-16, 7.93, 0.85
-15, 16.90, 0.83
-14, 7.53, 0.83
-13, 16.41, 0.80
-12, 6.71, 0.80
-11, 15.89, 0.80
-10, 6.50, 0.78
-9, 15.53, 0.78
-8, 7.09, 0.76
-7, 15.53, 0.76
-6, 8.85, 0.76
-5, 14.69, 0.74
-4, 9.57, 0.74
-3, 13.17, 0.72
-2, 10.19, 0.72
-1, 12.09, 0.72
0, 11.40, 0.69
-29, 9.16, 0.69
-28, 10.66, 0.69
-27, 6.35, 0.67
-26, 11.91, 0.67
-25, 6.03, 0.65
-24, 12.54, 0.65
-23, 5.23, 0.65
-22, 12.87, 0.63
-21, 4.40, 0.63
-20, 14.57, 0.63
-19, 4.52, 0.60
-18, 15.42, 0.60
-17, 5.79, 0.60
-16, 14.93, 0.60
-15, 5.81, 0.58
-14, 13.37, 0.58
-13, 5.36, 0.58
-12, 13.23, 0.56
-11, 6.73, 0.56
-10, 12.61, 0.56
-9, 7.91, 0.54
-8, 11.22, 0.54
-7, 9.68, 0.54
-6, 9.12, 0.54
-5, 10.75, 0.51
-4, 7.67, 0.51
-3, 11.35, 0.51
-2, 6.12, 0.49
-1, 4.20, 0.49
0, 2.24, 0.47
-29, 10.51, 0.47
-28, -0.16, 0.47
-27, 9.81, 0.47
-26, -0.22, 0.45
-25, 9.66, 0.45
-24, -0.25, 0.45
-23, 7.80, 0.45
-22, -0.98, 0.42
-21, 6.68, 0.42
-20, -0.74, 0.42
-19, 4.87, 0.42
-18, -0.51, 0.42
-17, 2.64, 0.40
-16, -0.29, 0.40
-15, 1.12, 0.40
-14, 0.13, 0.40
-13, -1.36, 0.38
-12, 1.39, 0.38
-11, -3.13, 0.38
-10, 2.10, 0.38
-9, -3.73, 0.38
-8, 2.21, 0.36
-7, -5.10, 0.36
-6, 3.24, 0.36
-5, -5.86, 0.36
-4, 4.20, 0.36
-3, -5.68, 0.36
-2, 4.96, 0.34
-1, -4.85, 0.34
0, 4.52, 0.34
-29, -5.01, 0.34
-28, 3.08, 0.34
-27, -5.32, 0.31
-26, 1.36, 0.31
-25, -4.34, 0.31
-24, 0.04, 0.31
-23, -3.17, 0.31
-22, -0.96, 0.31
-21, -1.61, 0.29
-20, -1.61, 0.29
-19, -0.56, 0.29
-18, -3.00, 0.29
-17, 0.36, 0.29
-16, -4.85, 0.29
-15, 1.94, 0.27
-14, -4.94, 0.27
-13, 3.42, 0.27
-12, -5.43, 0.27
-11, 4.11, 0.27
-10, -6.30, 0.27
-9, 3.42, 0.27
-8, -6.62, 0.25
-7, 3.98, 0.25
-6, -5.21, 0.25
-5, 4.25, 0.25
-4, -4.31, 0.25
-3, 2.68, 0.25
-2, -3.64, 0.25
-1, 2.15, 0.25
0, -2.19, 0.22
-29, 1.65, 0.22
-28, -1.25, 0.22
-27, -0.02, 0.22
-26, 0.16, 0.22
-25, -1.16, 0.22
-24, 1.59, 0.22
-23, -0.85, 0.22
-22, 4.63, 0.20
-21, -2.32, 0.20
-20, 5.30, 0.20
-19, -3.17, 0.20
-18, 5.88, 0.20
-17, -2.95, 0.20
-16, 6.84, 0.20
-15, -3.46, 0.20
-14, 6.37, 0.20
-13, -3.42, 0.18
-12, 6.17, 0.18
-11, -2.82, 0.18
-10, 5.28, 0.18
-9, -2.24, 0.18
-8, 4.20, 0.18
-7, -0.83, 0.18
-6, 4.47, 0.18
-5, 0.83, 0.18
-4, 2.91, 0.16
-3, 2.48, 0.16
-2, 4.78, 0.16
-1, 1.36, 0.16
0, 5.07, 0.16
-29, -0.31, 0.16
-28, 5.95, 0.16
-27, -0.42, 0.16
-26, 6.84, 0.16
-25, -1.81, 0.16
-24, 7.04, 0.16
-23, -2.12, 0.13
-22, 7.96, 0.13
-21, -1.48, 0.13
-20, 8.07, 0.13
-19, -0.56, 0.13
-18, 9.19, 0.13
-17, 1.32, 0.13
-16, 8.85, 0.13
-15, 1.45, 0.13
-14, 7.26, 0.13
-13, 2.26, 0.13
-12, 6.12, 0.13
-11, 3.02, 0.13
-10, 3.82, 0.13
-9, 3.11, 0.11
-8, 1.90, 0.11
-7, 5.43, 0.11
-6, 1.39, 0.11
-5, 6.21, 0.11
-4, 0.76, 0.11
-3, 7.76, 0.11
-2, -0.87, 0.11
-1, 7.80, 0.11
0, -1.65, 0.11
-29, 8.29, 0.11
-28, -2.24, 0.11
-27, 8.38, 0.11
-26, -1.54, 0.11
-25, 7.38, 0.11
-24, -1.50, 0.09
-23, 7.82, 0.09
-22, -0.22, 0.09
-21, 7.55, 0.09
-20, 1.70, 0.09
-19, 7.33, 0.09
-18, 4.16, 0.09
-17, 6.97, 0.09
-16, 6.15, 0.09
-15, 5.14, 0.09
-14, 7.29, 0.09
-13, 4.18, 0.09
-12, 8.27, 0.09
-11, 3.13, 0.09
-10, 8.99, 0.09
-9, 1.97, 0.09
-8, 9.54, 0.09
-7, 0.29, 0.09
-6, 9.70, 0.09
-5, -1.03, 0.07
-4, 9.34, 0.07
-3, -1.32, 0.07
-2, 8.72, 0.07
-1, 8.38, 0.07
0, -0.40, 0.07
-29, 8.02, 0.07
-28, 0.45, 0.07
-27, 7.38, 0.07
-26, 3.15, 0.07
-25, 7.22, 0.07
-24, 5.14, 0.07
-23, 5.97, 0.07
-22, 6.55, 0.07
-21, 4.67, 0.07
-20, 6.71, 0.07
-19, 2.19, 0.07
-18, 6.84, 0.07
-17, 0.80, 0.07
-16, 8.36, 0.07
-15, 0.09, 0.07
-14, 9.25, 0.07
-13, -0.40, 0.07
-12, 0.25, 0.04
-11, 10.89, 0.04
-10, 1.43, 0.04
-9, 11.76, 0.04
-8, 2.88, 0.04
-7, 10.62, 0.04
-6, 2.50, 0.04
-5, 9.05, 0.04
-4, 4.22, 0.04
-3, 8.63, 0.04
-2, 5.43, 0.04
-1, 7.67, 0.04
0, 6.71, 0.04
-29, 6.93, 0.04
-28, 9.16, 0.04
-27, 6.73, 0.04
-26, 9.79, 0.04
-25, 4.36, 0.04
-24, 10.77, 0.04
-23, 3.42, 0.04
-22, 11.49, 0.04
-21, 3.04, 0.04
-20, 12.45, 0.04
-19, 2.41, 0.04
-18, 12.18, 0.04
-17, 2.82, 0.04
-16, 11.49, 0.04
-15, 2.10, 0.04
-14, 12.18, 0.04
-13, 3.38, 0.04
-12, 11.73, 0.04
-11, 4.49, 0.04
-10, 8.90, 0.04
-9, 3.87, 0.04
-8, 7.85, 0.02
-7, 5.65, 0.02
-6, 6.79, 0.02
-5, 6.46, 0.02
-4, 4.52, 0.02
-3, 7.29, 0.02
-2, 2.62, 0.02
-1, 8.29, 0.02
0, 1.56, 0.02
-29, 9.37, 0.02
-28, 1.39, 0.02
-27, 10.84, 0.02
-26, 1.52, 0.02
-25, 10.91, 0.02
-24, 0.56, 0.02
-23, 11.40, 0.02
-22, 1.34, 0.02
-21, 11.24, 0.02
-20, 1.79, 0.02
-19, 9.79, 0.02
-18, 1.94, 0.02
-17, 8.29, 0.02
-16, 2.12, 0.02
-15, 7.47, 0.02
-14, 3.78, 0.02
-13, 6.50, 0.02
-12, 6.12, 0.02
-11, 5.50, 0.02
-10, 7.82, 0.02
-9, 5.05, 0.02
-8, 8.96, 0.02
-7, 4.09, 0.02
-6, 11.44, 0.02
-5, 4.56, 0.02
-4, 13.30, 0.02
-3, 3.89, 0.02
-2, 12.45, 0.02
-1, 2.35, 0.02
0, 11.98, 0.02
-29, 3.29, 0.02
-28, 13.28, 0.02
-27, 3.71, 0.02
-26, 13.05, 0.02
-25, 3.96, 0.02
-24, 11.27, 0.02
-23, 4.78, 0.02
-22, 10.24, 0.02
-21, 5.61, 0.02
-20, 9.23, 0.02
-19, 5.14, 0.02
-18, 5.41, 0.02
-17, 5.79, 0.02
-16, 3.60, 0.02
-15, 6.41, 0.02
-14, 2.30, 0.02
-13, 8.34, 0.02
-12, 2.17, 0.02
-11, 9.50, 0.02
-10, 1.52, 0.02
-9, 10.51, 0.00
-8, 0.36, 0.00
-7, 11.15, 0.00
-6, 1.21, 0.00
-5, 10.39, 0.00
-4, 0.29, 0.00
-3, 8.76, 0.00
-2, -0.07, 0.00
-1, 8.81, 0.00
0, 0.45, 0.00
-29, 7.11, 0.00
-28, 1.50, 0.00
-27, 5.86, 0.00
-26, 2.35, 0.00
-25, 4.94, 0.00
-24, 4.00, 0.00
-23, 3.53, 0.00
-22, 5.59, 0.00
-21, 2.77, 0.00
-20, 8.11, 0.00
-19, 3.00, 0.00
-18, 9.79, 0.00
-17, 2.44, 0.00
-16, 10.59, 0.00
-15, 0.85, 0.00
-14, 10.62, 0.00
-13, 1.32, 0.00
-12, 11.87, 0.00
-11, 2.53, 0.00
-10, 12.92, 0.00
-9, 2.93, 0.00
-8, 11.31, 0.00
-7, 2.64, 0.00
-6, 10.68, 0.00
-5, 4.34, 0.00
-4, 9.45, 0.00
-3, 4.96, 0.00
-2, 7.33, 0.00
-1, 5.97, 0.00
0, 6.50, 0.00
-29, 7.40, 0.00
-28, 5.01, 0.00
-27, 8.00, 0.00
-26, 4.14, 0.00
-25, 9.25, 0.00
-24, 3.17, 0.00
-23, 10.93, 0.00
-22, 3.20, 0.00
-21, 12.76, 0.00
-20, 3.96, 0.00
-19, 13.93, 0.00
-18, 3.11, 0.00
-17, 13.30, 0.00
-16, 3.38, 0.00
-15, 12.67, 0.00
-14, 3.20, 0.00
-13, 11.22, 0.00
-12, 3.71, 0.00
-11, 10.46, 0.00
-10, 5.45, 0.00
-9, 9.39, 0.00
-8, 6.77, 0.00
-7, 8.69, 0.00
-6, 8.18, 0.00
-5, 7.64, 0.00
-4, 10.08, 0.00
-3, 6.68, 0.00
-2, 11.22, 0.00
-1, 5.90, 0.00
0, 12.29, 0.00
-29, 4.14, 0.00
-28, 12.05, 0.00
-27, 3.80, 0.00
-26, 12.54, 0.00
-25, 3.55, 0.00
-24, 3.46, 0.00
-23, 12.83, 0.00
-22, 11.82, 0.00
-21, 3.73, 0.00
-20, 10.53, 0.00
-19, 4.05, 0.00
-18, 9.92, 0.00
-17, 5.95, 0.00
-16, 8.81, 0.00
-15, 7.33, 0.00
-14, 8.16, 0.00
-13, 5.88, 0.00
-12, 9.50, 0.00
-11, 4.07, 0.00
-10, 9.99, 0.00
-9, 3.08, 0.00
-8, 10.48, 0.00
-7, 1.72, 0.00
-6, 10.19, 0.00
-5, 0.20, 0.00
-4, 9.07, 0.00
-3, -0.09, 0.00
-2, 9.54, 0.00
-1, -0.87, 0.00
0, 8.34, 0.00
-29, -0.85, 0.00
-28, 6.35, 0.00
-27, -0.98, 0.00
-26, 5.39, 0.00
-25, 0.27, 0.00
-24, 4.16, 0.00
-23, 2.06, 0.00
-22, 3.11, 0.00
-21, 2.93, 0.00
-20, 1.79, 0.00
-19, 4.81, 0.00
-18, 1.43, 0.00
-17, 6.21, 0.00
-16, 0.56, 0.00
-15, 7.58, 0.00
-14, 0.09, 0.00
-13, 8.00, 0.00
-12, -1.41, 0.00
-11, 7.38, 0.00
-10, -2.08, 0.00
-9, 6.88, 0.00
-8, -2.75, 0.00
-7, 7.58, 0.00
-6, -1.92, 0.00
-5, 7.31, 0.00
-4, -0.69, 0.00
-3, 7.04, 0.00
-2, 0.78, 0.00
-1, 6.12, 0.00
0, 2.21, 0.00
-29, 3.11, 0.00
-28, 3.62, 0.00
-27, 5.95, 0.00
-26, 3.33, 0.00
-25, 6.66, 0.00
-24, 2.82, 0.00
-23, 8.20, 0.00
-22, 0.40, 0.00
-21, 8.56, 0.00
-20, 0.29, 0.00
-19, 8.20, 0.00
-18, -0.67, 0.00
-17, 9.83, 0.00
-16, -0.31, 0.00
-15, 10.64, 0.00
-14, 0.65, 0.00
-13, 9.88, 0.00
-12, 0.38, 0.00
-11, 8.99, 0.00
-10, 2.06, 0.00
-9, 8.34, 0.00
-8, 2.53, 0.00
-7, 6.17, 0.00
-6, 2.86, 0.00
-5, 4.02, 0.00
-4, 4.40, 0.00
-3, 2.68, 0.00
-2, 5.70, 0.00
-1, 2.66, 0.00
0, 7.76, 0.00
-29, 1.83, 0.00
-28, 8.27, 0.00
-27, 0.60, 0.00
-26, 8.76, 0.00
-25, -0.11, 0.00
-24, 9.61, 0.00
-23, 0.11, 0.00
-22, 9.90, 0.00
-21, 0.80, 0.00
-20, 10.08, 0.00
-19, 0.65, 0.00
-18, 9.39, 0.00
-17, 1.12, 0.00
-16, 8.78, 0.00
-15, 2.70, 0.00
-14, 6.91, 0.00
-13, 3.20, 0.00
-12, 5.65, 0.00
-11, 4.76, 0.00
-10, 5.01, 0.00
-9, 7.47, 0.00
-8, 4.38, 0.00
-7, 8.74, 0.00
-6, 4.40, 0.00
-5, 10.15, 0.00
-4, 3.33, 0.00
-3, 10.15, 0.00
-2, 2.17, 0.00
-1, 10.73, 0.00
0, 2.37, 0.00
-29, 12.49, 0.00
-28, 2.82, 0.00
-27, 13.32, 0.00
-26, 3.76, 0.00
-25, 12.58, 0.00
-24, 3.29, 0.00
-23, 11.18, 0.00
-22, 2.95, 0.00
-21, 9.14, 0.00
-20, 4.14, 0.00
-19, 8.40, 0.00
-18, 5.63, 0.00
-17, 7.09, 0.00
-16, 6.44, 0.00
-15, 6.55, 0.00
-14, 3.06, 0.00
-13, 8.76, 0.00
-12, 3.38, 0.00
-11, 10.59, 0.00
-10, 1.86, 0.00
-9, 10.53, 0.00
-8, 1.56, 0.00
-7, 11.20, 0.00
-6, 1.68, 0.00
-5, 11.18, 0.00
-4, 0.72, 0.00
-3, 10.93, 0.00
-2, 1.97, 0.00
-1, 10.80, 0.00
0, 3.31, 0.00
-29, 9.59, 0.00
-28, 4.20, 0.00
-27, 8.99, 0.00
-26, 5.77, 0.00
-25, 8.38, 0.00
-24, 7.26, 0.00
-23, 6.41, 0.00
-22, 5.10, 0.00
-21, 8.07, 0.00
-20, 3.44, 0.00
-19, 8.65, 0.00
-18, 0.74, 0.00
-17, 8.99, 0.00
-16, 0.54, 0.00
-15, 10.46, 0.00
-14, 1.23, 0.00
-13, 0.85, 0.00
-12, 10.04, 0.00
-11, 0.80, 0.00
-10, 9.86, 0.00
-9, 0.67, 0.00
-8, 9.21, 0.00
-7, 1.81, 0.00
-6, 7.38, 0.00
-5, 3.49, 0.00
-4, 6.50, 0.00
-3, 3.53, 0.00
-2, 4.60, 0.00
-1, 4.60, 0.00
0, 3.08, 0.00
-29, 5.77, 0.00
-28, 1.34, 0.00
-27, 6.59, 0.00
-26, -0.67, 0.00
-25, 7.47, 0.00
-24, 0.04, 0.00
-23, 7.89, 0.00
-22, -1.65, 0.00
-21, 8.07, 0.00
-20, -1.05, 0.00
-19, 8.99, 0.00
-18, 0.02, 0.00
-17, 9.68, 0.00
-16, -0.16, 0.00
-15, 9.14, 0.00
-14, 0.85, 0.00
-13, 7.11, 0.00
-12, 1.12, 0.00
-11, 6.12, 0.00
-10, 3.08, 0.00
-9, 5.36, 0.00
-8, 3.89, 0.00
-7, 3.24, 0.00
-6, 4.52, 0.00
-5, 2.12, 0.00
-4, 5.72, 0.00
-3, 0.20, 0.00
-2, 6.12, 0.00
-1, -1.03, 0.00
0, 7.02, 0.00
-29, -0.51, 0.00
-28, 8.40, 0.00
-27, -0.69, 0.00
-26, 9.81, 0.00
-25, 0.31, 0.00
-24, 9.95, 0.00
-23, 1.01, 0.00
-22, 9.86, 0.00
-21, 1.94, 0.00
-20, 9.95, 0.00
-19, 2.84, 0.00
-18, 8.02, 0.00
-17, 2.26, 0.00
-16, 5.79, 0.00
-15, 4.85, 0.00
-14, 5.12, 0.00
-13, 3.80, 0.00
-12, 7.15, 0.00
-11, 1.74, 0.00
-10, 7.40, 0.00
-9, 1.56, 0.00
-8, 8.65, 0.00
-7, 9.83, 0.00
-6, 0.00, 0.00
-5, 9.83, 0.00
-4, 0.11, 0.00
-3, 9.81, 0.00
-2, 0.36, 0.00
-1, 10.15, 0.00
0, 0.83, 0.00
-29, 10.44, 0.00
-28, 2.86, 0.00
-27, 8.85, 0.00
-26, 2.37, 0.00
-25, 6.73, 0.00
-24, 3.35, 0.00
-23, 5.28, 0.00
-22, 5.48, 0.00
-21, 4.54, 0.00
-20, 6.77, 0.00
-19, 4.09, 0.00
-18, 8.99, 0.00
-17, 3.46, 0.00
-16, 8.74, 0.00
-15, 0.89, 0.00
-14, 8.61, 0.00
-13, 0.49, 0.00
-12, 10.86, 0.00
-11, 1.70, 0.00
-10, 11.38, 0.00
-9, 1.25, 0.00
-8, 10.51, 0.00
-7, 1.05, 0.00
-6, 10.28, 0.00
-5, 1.90, 0.00
-4, 9.19, 0.00
-3, 2.15, 0.00
-2, 7.09, 0.00
-1, 2.19, 0.00
0, 5.68, 0.00
-29, 3.00, 0.00
-28, 4.22, 0.00
-27, 5.34, 0.00
-26, 2.68, 0.00
-25, 6.41, 0.00
-24, 2.55, 0.00
-23, 7.00, 0.00
-22, 0.51, 0.00
-21, 8.45, 0.00
-20, -0.38, 0.00
-19, 8.99, 0.00
-18, 0.16, 0.00
-17, 9.90, 0.00
-16, 0.36, 0.00
-15, 10.26, 0.00
-14, 0.94, 0.00
-13, 9.50, 0.00
-12, 0.56, 0.00
-11, 9.70, 0.00
-10, 1.90, 0.00
-9, 8.27, 0.00
-8, 3.53, 0.00
-7, 7.00, 0.00
-6, 3.89, 0.00
-5, 5.70, 0.00
-4, 4.58, 0.00
-3, 3.46, 0.00
-2, 6.64, 0.00
-1, 3.33, 0.00
0, 8.78, 0.00
-29, 3.26, 0.00
-28, 9.57, 0.00
-27, 1.77, 0.00
-26, -201.55, 81504.80
-25, -148.30, 77198.27
-24, -172.09, 111176.49
-23, -197.03, 113651.97
-22, -154.50, 87351.10
-21, -138.89, 91761.68
-20, -140.19, 94618.61
-19, -113.84, 83589.57
-18, -93.05, 77365.50
-17, -106.30, 79919.55
-16, -95.80, 80464.66
-15, -79.62, 76153.79
-14, -60.68, 72636.81
-13, -74.86, 71369.20
-12, -59.57, 69836.50
-11, -47.97, 67910.70
-10, -27.56, 66323.50
-9, -40.50, 64133.79
-8, -26.38, 61466.30
-7, -19.83, 60044.40
-6, -0.78, 59432.32
-5, -9.57, 57436.13
-4, 2.86, 54455.14
-3, 8.83, 52914.95
-2, 23.07, 52597.29
-1, 18.26, 51058.00
0, 24.79, 48258.95
-29, 42.20, 46146.80
-28, 45.17, 44995.73
-27, 46.65, 42593.50
-26, 57.13, 40786.36
-25, 61.47, 40208.50
-24, 69.72, 39297.91
-23, 65.69, 37326.89
-22, 77.94, 35568.02
-21, 76.62, 34798.73
-20, 82.46, 32410.61
-19, 97.99, 30787.27
-18, 93.36, 29885.42
-17, 106.24, 29130.27
-16, 98.57, 27830.42
-15, 111.85, 26381.92
-14, 106.71, 25417.30
-13, 119.83, 24667.94
-12, 114.69, 23582.76
-11, 124.72, 22315.42
-10, 122.33, 21346.05
-9, 129.22, 20595.50
-8, 128.75, 19662.67
-7, 133.89, 18561.85
-6, 136.26, 17627.92
-5, 139.99, 16885.11
-4, 142.69, 16059.79
-3, 141.69, 15102.07
-2, 148.33, 14228.05
-1, 145.93, 13505.19
0, 154.43, 12760.36
-29, 149.29, 11923.11
-28, 159.99, 11120.21
-27, 164.93, 9748.24
-26, 158.47, 9009.76
-25, 170.07, 8280.05
-24, 162.05, 7629.48
-23, 173.11, 7003.38
-22, 163.93, 6346.24
-21, 173.81, 5687.85
-20, 167.28, 5083.70
-19, 176.38, 4507.79
-18, 171.88, 3919.40
-17, 178.01, 3327.62
-16, 174.14, 2771.57
-15, 178.88, 2243.33
-14, 177.41, 1713.37
-13, 179.89, 1181.94
-12, 180.91, 674.22
-11, 184.98, -286.48
-10, 182.57, -762.40
-9, 189.54, -1223.15
-8, 183.17, -1662.21
-7, 191.47, -2093.62
-6, 184.04, -2520.14
-5, 193.99, -2936.53
-4, 185.23, -3333.99
-3, 195.04, -3722.91
-2, 184.78, -4105.01
-1, 194.75, -4478.95
0, 195.58, -5186.99
-29, 195.73, -5863.20
-28, 188.60, -6184.77
-27, 195.67, -6498.05
-26, 190.46, -6802.86
-25, 194.68, -7101.44
-24, 190.50, -7389.55
-23, 193.28, -7668.41
-22, 192.74, -7939.92
-21, 192.81, -8204.18
-20, 194.62, -8460.13
-19, 191.35, -8707.75
-18, 195.11, -8948.72
-17, 189.63, -9181.56
-16, 196.54, -9408.61
-15, 188.58, -9626.47
-14, 186.48, -10044.02
-13, 195.09, -10244.03
-12, 185.23, -10434.84
-11, 195.06, -10621.39
-10, 195.00, -10974.44
-9, 185.83, -11140.49
-8, 195.22, -11302.96
-7, 186.08, -11457.77
-6, 193.90, -11608.38
-5, 186.50, -11752.05
-4, 191.67, -11891.64
-3, 186.95, -12024.68
-2, 189.72, -12153.60
-1, 186.55, -12276.92
0, 186.66, -12395.56
-29, 185.59, -12509.44
-28, 182.77, -12618.59
-27, 185.03, -12723.26
-26, 180.02, -12822.21
-25, 185.61, -12917.74
-24, 179.02, -13007.89
-23, 186.12, -13095.44
-22, 177.25, -13177.04
-21, 184.94, -13256.35
-20, 174.90, -13329.46
-19, 183.46, -13400.94
-18, 172.94, -13466.14
-17, 182.28, -13530.02
-16, 171.53, -13588.34
-15, 180.58, -13644.75
-14, 170.52, -13696.01
-13, 177.90, -13745.25
-12, 169.78, -13789.46
-11, 175.35, -13832.15
-10, 169.54, -13870.31
-9, 174.08, -13906.63
-8, 169.63, -13938.90
-7, 170.86, -13968.63
-6, 169.94, -13994.83
-5, 168.29, -14018.81
-4, 166.48, -14058.33
-3, 169.31, -14074.87
-2, 163.48, -14087.39
-1, 170.19, -14098.25
0, 162.09, -14105.56
-29, 168.87, -14112.13
-28, 158.97, -14114.43
-27, 167.08, -14116.64
-26, 156.35, -14114.23
-25, 165.49, -14111.77
-24, 154.16, -14105.36
-23, 162.23, -14098.76
-22, 152.46, -14088.33
-21, 160.66, -14077.75
-20, 151.88, -14063.25
-19, 157.92, -14048.99
-18, 150.65, -14031.26
-17, 155.21, -14013.13
-16, 150.72, -13991.72
-15, 153.33, -13969.59
-14, 149.44, -13945.65
-13, 149.33, -13920.20
-12, 148.48, -13893.49
-11, 146.14, -13864.88
-10, 142.18, -13803.65
-9, 147.57, -13771.49
-8, 140.39, -13736.51
-7, 147.10, -13701.93
-6, 137.42, -13664.42
-5, 145.24, -13627.28
-4, 133.78, -13587.42
-3, 132.10, -13505.73
-2, 140.28, -13464.55
-1, 130.24, -13419.90
0, 138.67, -13376.49
-29, 128.23, -13330.18
-28, 135.63, -13284.85
-27, 126.33, -13236.92
-26, 132.79, -13189.18
-25, 127.05, -13139.65
-24, 130.47, -13090.03
-23, 126.11, -13039.18
-22, 127.45, -12988.04
-21, 124.59, -12882.38
-20, 126.29, -12829.07
-19, 122.51, -12774.40
-18, 125.89, -12719.75
-17, 119.65, -12663.51
-16, 125.55, -12608.15
-15, 117.59, -12550.64
-14, 124.25, -12494.67
-13, 115.04, -12435.97
-12, 123.69, -12378.42
-11, 113.55, -12318.34
-10, 122.44, -12260.53
-9, 111.58, -12199.87
-8, 120.52, -12141.09
-7, 118.51, -12019.78
-6, 110.19, -11957.18
-5, 117.26, -11896.33
-4, 108.72, -11833.75
-3, 113.03, -11772.28
-2, 107.80, -11709.34
-1, 110.82, -11646.98
0, 108.56, -11583.68
-29, 108.50, -11520.80
-28, 108.29, -11457.61
-27, 104.78, -11393.87
-26, 108.23, -11330.43
-25, 103.53, -11265.59
-24, 108.63, -11201.84
-23, 100.56, -11137.09
-22, 107.74, -11073.14
-21, 98.73, -11007.65
-20, 107.00, -10944.02
-19, 97.30, -10877.90
-18, 104.87, -10814.09
-17, 94.19, -10748.17
-16, 103.98, -10684.07
-15, 102.04, -10554.27
-14, 92.29, -10488.24
-13, 99.71, -10424.07
-12, 91.40, -10358.02
-11, 97.68, -10293.74
-10, 91.15, -10228.07
-9, 93.61, -10163.65
-8, 89.34, -10098.18
-7, 89.56, -9967.74
-6, 88.07, -9902.83
-5, 89.34, -9838.19
-4, 85.88, -9772.81
-3, 89.54, -9708.61
-2, 83.08, -9643.14
-1, 88.51, -9579.31
0, 80.65, -9513.97
-29, 88.67, -9450.54
-28, 79.30, -9385.50
-27, 89.25, -9322.13
-26, 87.42, -9194.75
-25, 76.91, -9130.15
-24, 86.68, -9067.54
-23, 76.33, -9003.13
-22, 83.91, -8941.26
-21, 75.06, -8877.37
-20, 82.48, -8815.26
-19, 75.91, -8751.85
-18, 81.29, -8690.16
-17, 76.33, -8627.44
-16, 79.53, -8565.81
-15, 77.40, -8442.41
-14, 77.76, -8381.17
-13, 74.77, -8320.12
-12, 77.54, -8259.71
-11, 71.97, -8198.44
-10, 77.14, -8138.27
-9, 70.30, -8077.09
-8, 78.14, -8017.66
-7, 68.98, -7957.29
-6, 77.58, -7898.99
-5, 66.99, -7839.09
-4, 74.72, -7781.47
-3, 64.44, -7721.43
-2, 74.25, -7664.26
-1, 64.69, -7605.00
0, 72.93, -7547.94
-29, 63.34, -7489.02
-28, 70.07, -7432.42
-27, 61.56, -7374.49
-26, 67.32, -7318.45
-25, 62.32, -7261.23
-24, 65.67, -7205.58
-23, 61.82, -7149.18
-22, 62.45, -7093.86
-21, 61.53, -7038.61
-20, 60.82, -6983.11
-19, 63.30, -6928.12
-18, 59.63, -6873.05
-17, 63.86, -6819.32
-16, 57.76, -6764.62
-15, 63.81, -6711.33
-14, 62.88, -6604.58
-13, 53.11, -6550.76
-12, 61.02, -6499.64
-11, 51.23, -6445.82
-10, 60.91, -6394.43
-9, 50.31, -6341.79
-8, 59.03, -6291.79
-7, 49.78, -6239.53
-6, 57.67, -6189.62
-5, 48.35, -6138.03
-4, 55.43, -6088.26
-3, 48.35, -6037.70
-2, 53.26, -5988.61
-1, 48.97, -5938.63
0, 51.72, -5889.44
-29, 49.80, -5840.29
-28, 48.95, -5791.85
-27, 49.46, -5743.59
-26, 46.65, -5695.69
-25, 49.55, -5648.24
-24, 44.95, -5600.41
-23, 50.45, -5553.96
-22, 43.32, -5506.33
-21, 50.43, -5460.62
-20, 41.53, -5413.59
-19, 51.25, -5368.82
-18, 41.24, -5322.11
-17, 50.60, -5277.96
-16, 40.39, -5231.89
-15, 50.16, -5188.24
-14, 39.58, -5143.00
-13, 49.02, -5099.95
-12, 40.32, -5055.18
-11, 47.61, -5012.94
-10, 39.76, -4968.93
-9, 46.34, -4926.59
-8, 43.61, -4842.30
-7, 41.19, -4800.04
-6, 41.71, -4717.07
-5, 40.32, -4675.72
-4, 42.00, -4635.19
-3, 38.20, -4594.42
-2, 42.60, -4554.68
-1, 35.43, -4514.52
0, 42.40, -4475.40
-29, 34.20, -4435.28
-28, 42.33, -4397.01
-27, 33.53, -4357.25
-26, 42.47, -4319.68
-25, 32.41, -4280.54
-24, 42.20, -4243.68
-23, 31.99, -4204.90
-22, 42.98, -4168.42
-21, 34.20, -4130.47
-20, 42.02, -4094.77
-19, 34.35, -4057.40
-18, 40.86, -4022.08
-17, 35.23, -3985.27
-16, 39.72, -3950.27
-15, 36.39, -3913.97
-14, 39.52, -3878.90
-13, 37.77, -3843.78
-12, 38.38, -3774.87
-11, 35.45, -3740.79
-10, 38.20, -3707.26
-9, 33.66, -3672.88
-8, 38.98, -3640.23
-7, 30.89, -3606.70
-6, 38.51, -3574.69
-5, 30.26, -3541.05
-4, 39.67, -3509.89
-3, 28.14, -3413.78
-2, 37.06, -3383.49
-1, 27.25, -3351.13
0, 36.05, -3321.40
-29, 27.60, -3289.89
-28, 35.18, -3260.76
-27, 28.45, -3229.80
-26, 29.48, -3170.42
-25, 32.95, -3141.40
-24, 31.72, -3083.56
-23, 31.94, -3054.90
-22, 30.17, -3026.74
-21, 28.65, -2970.88
-20, 33.39, -2943.59
-19, 32.72, -2889.10
-18, 24.18, -2861.49
-17, 32.77, -2835.52
-16, 24.30, -2807.74
-15, 34.09, -2782.30
-14, 24.07, -2754.96
-13, 32.48, -2730.38
-12, 22.60, -2703.55
-11, 30.73, -2679.55
-10, 21.82, -2653.06
-9, 29.66, -2629.12
-8, 21.88, -2603.44
-7, 28.32, -2579.79
-6, 21.30, -2554.83
-5, 26.78, -2531.27
-4, 22.11, -2506.79
-3, 24.18, -2482.90
-2, 22.40, -2459.18
-1, 21.17, -2436.34
0, 22.53, -2413.30
-29, 19.65, -2390.16
-28, 22.93, -2367.88
-27, 17.46, -2344.63
-26, 23.34, -2322.70
-25, 15.85, -2299.84
-24, 23.67, -2279.01
-23, 15.31, -2256.07
-22, 24.21, -2235.62
-21, 13.48, -2213.43
-20, 23.67, -2192.93
-19, 14.01, -2170.56
-18, 23.65, -2150.53
-17, 13.14, -2128.87
-16, 22.40, -2109.20
-15, 13.50, -2087.79
-14, 20.41, -2068.74
-13, 13.79, -2047.80
-12, 20.41, -2028.38
-11, 15.51, -2008.19
-10, 19.11, -1989.08
-9, 16.05, -1969.68
-8, 17.37, -1950.50
-7, 16.09, -1931.77
-6, 15.11, -1912.86
-5, 17.57, -1894.85
-4, 13.66, -1876.09
-3, 18.19, -1858.35
-2, 11.09, -1839.39
-1, 18.89, -1821.64
0, 10.73, -1802.58
-29, 19.02, -1786.04
-28, 10.39, -1767.29
-27, 19.94, -1750.99
-26, 9.28, -1732.93
-25, 19.85, -1716.68
-24, 9.70, -1699.09
-23, 19.40, -1683.35
-22, 10.59, -1665.58
-21, 18.93, -1650.16
-20, 10.51, -1633.15
-19, 16.92, -1617.60
-18, 11.11, -1600.99
-17, 16.05, -1585.61
-16, 13.10, -1569.16
-15, 15.60, -1553.98
-14, 13.72, -1538.74
-13, 13.84, -1523.14
-12, 15.80, -1508.09
-11, 13.55, -1492.74
-10, 17.57, -1478.14
-9, 11.71, -1463.26
-8, 17.34, -1449.53
-7, 10.10, -1434.27
-6, 17.46, -1420.90
-5, 8.52, -1405.88
-4, 17.59, -1392.94
-3, 8.63, -1377.72
-2, 18.98, -1364.73
-1, 8.96, -1350.07
0, 18.37, -1337.53
-29, 8.25, -1323.20
-28, 17.19, -1310.93
-27, 9.59, -1296.60
-26, 17.52, -1284.13
-25, 10.39, -1270.52
-24, 17.48, -1258.18
-23, 13.30, -1244.99
-22, 17.23, -1232.77
-21, 15.13, -1220.34
-20, 15.51, -1208.42
-19, 15.29, -1196.31
-18, 13.68, -1184.04
-17, 16.21, -1172.35
-16, 12.43, -1159.54
-15, 16.70, -1148.57
-14, 11.22, -1136.00
-13, 18.13, -1125.54
-12, 10.80, -1112.94
-11, 20.05, -1102.77
-10, 10.86, -1090.56
-9, 20.23, -1080.39
-8, 10.08, -1068.57
-7, 19.11, -1059.09
-6, 9.43, -1046.89
-5, 18.31, -1037.63
-4, 8.96, -1026.15
-3, 18.53, -1016.38
-2, 10.57, -1005.49
-1, 17.28, -995.73
0, 11.44, -985.15
-29, 15.78, -975.81
-28, 12.29, -965.22
-27, 14.46, -955.76
-26, 14.19, -945.75
-25, 13.46, -936.14
-24, 15.58, -926.90
-23, 11.94, -917.52
-22, 16.54, -908.42
-21, 11.87, -898.52
-20, 17.77, -889.98
-19, 9.70, -880.06
-18, 17.64, -872.05
-17, 8.56, -862.20
-16, 17.28, -854.60
-15, 8.20, -844.99
-14, 18.62, -837.34
-13, 8.23, -827.80
-12, 17.21, -820.60
-11, 8.09, -810.97
-10, 16.96, -803.75
-9, 8.18, -794.49
-8, 15.58, -787.12
-7, 8.54, -778.42
-6, 14.19, -771.09
-5, 8.69, -763.04
-4, 12.16, -755.78
-3, 10.15, -747.78
-2, 11.65, -739.93
-1, 12.52, -732.29
0, 11.44, -724.51
-29, 13.90, -717.29
-28, 9.63, -709.47
-27, 14.28, -702.81
-26, 8.20, -694.80
-25, 16.29, -688.25
-24, 7.89, -680.36
-23, 17.08, -674.15
-22, 7.73, -666.04
-21, 17.48, -660.02
-20, 6.30, -652.22
-19, 16.21, -646.41
-18, 6.82, -638.57
-17, 16.32, -633.11
-16, 8.07, -625.51
-15, 8.49, -612.75
-14, 14.55, -607.36
-13, 13.50, -594.67
-12, 9.72, -588.30
-11, 11.47, -582.33
-10, 11.24, -575.91
-9, 10.17, -569.81
-8, 12.00, -564.05
-7, 8.76, -558.08
-6, 13.59, -552.74
-5, 14.69, -541.49
-4, 8.23, -534.68
-3, 15.69, -530.18
-2, 7.15, -523.63
-1, 16.56, -519.41
0, 17.10, -508.57
-29, 6.12, -502.11
-28, 16.38, -497.97
-27, 6.62, -491.69
-26, 15.31, -487.47
-25, 8.05, -481.14
-24, 15.27, -476.63
-23, 9.43, -470.84
-22, 14.04, -466.79
-21, 9.16, -461.72
-20, 12.11, -457.29
-19, 10.80, -452.06
-18, 11.18, -447.35
-17, 11.67, -442.83
-16, 9.19, -438.03
-15, 12.27, -433.91
-14, 7.85, -428.84
-13, 13.55, -425.13
-12, 7.89, -419.70
-11, 14.75, -416.21
-10, 6.03, -411.23
-9, 15.13, -407.81
-8, 6.33, -402.55
-7, 15.00, -399.54
-6, 6.21, -394.17
-5, 16.81, -391.00
-4, 6.84, -385.66
-3, 16.18, -382.82
-2, 7.24, -377.68
-1, 15.20, -374.32
0, 7.20, -369.47
-29, 13.59, -366.61
-28, 12.94, -358.57
-27, 10.68, -354.14
-26, 12.96, -350.36
-25, 12.00, -346.23
-24, 10.30, -342.97
-23, 12.05, -339.55
-22, 8.85, -335.23
-21, 13.34, -332.21
-20, 7.58, -328.44
-19, 15.15, -325.53
-18, 7.04, -321.69
-17, 15.56, -319.00
-16, 7.04, -314.44
-15, 16.09, -311.92
-14, 5.14, -307.56
-13, 14.89, -305.53
-12, 4.05, -301.35
-11, 13.99, -299.04
-10, 4.07, -294.91
-9, 13.25, -292.47
-8, 4.72, -288.54
-7, 12.00, -286.21
-6, 5.63, -282.44
-5, 10.77, -280.13
-4, 6.91, -276.47
-3, 7.87, -270.77
-2, 9.03, -268.02
-1, 9.70, -265.18
0, 8.61, -261.76
-29, 12.58, -259.44
-28, 8.00, -255.99
-27, 13.50, -254.01
-26, 6.44, -250.72
-25, 12.85, -249.09
-24, 4.02, -245.31
-23, 12.96, -243.95
-22, 4.02, -240.30
-21, 13.59, -238.92
-20, 4.11, -235.34
-19, 13.46, -233.96
-18, 3.24, -230.25
-17, 11.98, -228.86
-16, 4.16, -225.17
-15, 11.62, -223.88
-14, 2.88, -221.01
-13, 8.87, -219.52
-12, 3.24, -216.43
-11, 7.58, -214.73
-10, 5.25, -211.58
-9, 7.02, -209.55
-8, 5.01, -205.23
-7, 4.54, -200.67
-6, 10.04, -198.75
-5, 3.29, -196.25
-4, 10.53, -195.06
-3, 2.46, -192.16
-2, 11.24, -191.09
-1, 1.92, -188.45
0, 11.20, -187.62
-29, 0.92, -184.69
-28, 0.85, -180.80
-27, 10.44, -180.00
-26, 1.81, -176.98
-25, 10.53, -176.06
-24, 1.54, -173.29
-23, 8.94, -172.18
-22, 2.68, -169.58
-21, 7.60, -168.49
-20, 2.88, -166.21
-19, 5.74, -164.75
-18, 4.27, -163.03
-17, 5.41, -161.47
-16, 3.98, -158.27
-15, 7.15, -157.13
-14, 1.97, -155.17
-13, 8.47, -153.94
-12, 1.52, -151.68
-11, 10.17, -150.74
-10, 0.78, -148.21
-9, 9.23, -147.75
-8, -0.83, -145.17
-7, 8.25, -144.37
-6, -2.73, -142.16
-5, 7.02, -141.89
-4, 7.51, -138.87
-3, -0.80, -136.39
-2, 7.11, -135.94
-1, -0.18, -133.80
0, 5.57, -133.06
-29, 1.07, -131.00
-28, 4.34, -129.64
-27, 1.86, -127.81
-26, 3.06, -126.73
-25, 3.51, -125.21
-24, 1.59, -123.90
-23, 4.31, -122.76
-22, 0.25, -121.30
-21, 3.71, -120.59
-20, -1.56, -118.80
-19, 5.14, -118.20
-18, -2.57, -115.96
-17, 6.97, -115.58
-16, -2.10, -113.19
-15, 8.43, -112.74
-14, -1.23, -110.40
-13, 8.20, -110.66
-12, -0.92, -108.00
-11, 8.92, -107.94
-10, -0.54, -105.68
-9, 7.09, -105.41
-8, -1.10, -103.65
-7, 5.79, -103.60
-6, 0.31, -101.88
-5, 6.44, -101.25
-4, 3.17, -99.67
-3, 5.07, -99.13
-2, 3.98, -97.83
-1, 4.00, -96.98
0, 5.65, -95.78
-29, 3.31, -94.61
-28, 6.35, -94.30
-27, 1.52, -92.54
-26, 6.68, -92.31
-25, -0.07, -90.59
-24, 7.58, -90.23
-23, -1.14, -88.54
-22, 7.85, -88.87
-21, -1.86, -86.70
-20, 7.91, -86.84
-19, -1.81, -84.56
-18, 7.60, -84.98
-17, -2.73, -83.06
-16, 6.19, -83.51
-15, -3.20, -81.85
-14, 4.85, -81.65
-13, -1.83, -80.11
-12, 4.60, -80.22
-11, -0.34, -78.77
-10, 2.79, -78.63
-9, 0.47, -77.23
-8, 1.01, -76.47
-7, 1.41, -75.71
-6, 0.34, -74.81
-5, 3.08, -74.59
-4, -0.65, -73.36
-3, 4.54, -72.80
-2, -2.26, -71.37
-1, 4.76, -71.59
0, -3.06, -69.89
-29, 5.68, -70.12
-28, -3.22, -68.22
-27, 6.41, -68.20
-26, -3.78, -66.34
-25, 6.41, -66.85
-24, -4.22, -65.20
-23, 5.23, -65.62
-22, -4.00, -63.97
-21, 4.78, -64.02
-20, -3.38, -62.52
-19, 4.27, -62.76
-18, -0.27, -61.31
-17, 4.47, -61.33
-16, 0.96, -60.22
-15, 2.59, -59.99
-14, 0.76, -59.48
-13, -0.49, -59.46
-12, 1.30, -59.10
-11, -0.94, -57.80
-10, 2.48, -57.44
-9, -1.86, -55.88
-8, 4.40, -55.92
-7, -2.82, -54.65
-6, 4.85, -55.03
-5, -3.78, -53.55
-4, 5.83, -54.11
-3, -4.18, -52.59
-2, 6.82, -53.26
-1, -2.55, -51.59
0, 6.91, -52.48
-29, -1.39, -50.67
-28, 7.62, -51.05
-27, -1.25, -49.35
-26, 6.01, -49.51
-25, -1.07, -48.41
-24, 4.63, -48.88
-23, 0.54, -47.94
-22, 3.73, -48.03
-21, 0.87, -47.41
-20, 2.01, -47.01
-19, 2.10, -46.25
-18, 0.74, -45.60
-17, 3.80, -45.17
-16, -1.54, -44.44
-15, -3.44, -43.56
-14, 5.10, -43.61
-13, -3.46, -42.22
-12, 5.68, -42.56
-11, 5.41, -41.80
-10, -4.29, -40.03
-9, 4.98, -40.70
-8, -4.49, -38.98
-7, 6.03, -39.20
-6, -2.55, -37.64
-5, 5.74, -38.22
-4, -1.30, -36.79
-3, 4.40, -37.22
-2, -2.03, -36.21
-1, 3.78, -36.23
0, 0.89, -35.49
-29, 3.02, -35.54
-28, 1.77, -35.32
-27, 1.16, -34.78
-26, -0.18, -33.71
-25, 3.96, -33.57
-24, -2.03, -32.41
-23, 4.90, -32.95
-22, -3.33, -31.92
-21, 5.34, -32.30
-20, -3.33, -31.02
-19, 6.08, -31.72
-18, 5.92, -31.25
-17, -4.11, -29.91
-16, 5.05, -30.73
-15, -3.82, -29.26
-14, 5.14, -29.86
-13, -2.50, -27.81
-12, 3.33, -27.85
-11, -0.96, -26.96
-10, 1.52, -26.98
-9, -0.63, -26.58
-8, 0.13, -26.42
-7, 0.00, -26.08
-6, -1.14, -25.68
-5, 2.10, -25.68
-4, -1.90, -24.81
-3, 3.44, -25.21
-2, -2.48, -24.03
-1, 4.90, -24.72
0, -2.55, -23.22
-29, 6.15, -24.25
-28, -3.35, -22.51
-27, -3.84, -22.40
-26, 6.37, -23.40
-25, -2.68, -22.22
-24, 7.00, -22.62
-23, -1.59, -21.10
-22, 6.30, -21.88
-21, -0.76, -20.81
-20, 5.43, -21.79
-19, 0.07, -20.99
-18, 0.83, -21.08
-17, 2.35, -21.19
-16, 3.02, -20.79
-15, 2.35, -20.21
-14, 4.58, -19.65
-13, 1.36, -18.86
-12, 4.45, -19.60
-11, -1.05, -18.80
-10, 5.23, -19.87
-9, -2.30, -18.84
-8, -3.38, -17.97
-7, -2.24, -17.08
-6, 6.50, -18.42
-5, -3.26, -17.12
-4, 5.77, -18.04
-3, -3.76, -16.74
-2, 5.12, -17.59
-1, -3.06, -16.29
0, 3.78, -16.94
-29, -2.93, -16.12
-28, 1.99, -16.47
-27, -1.61, -15.89
-26, 0.69, -16.21
-25, -0.38, -16.05
-24, -0.65, -16.12
-23, 1.10, -15.91
-22, -0.40, -15.71
-21, 3.24, -16.07
-20, -2.66, -15.29
-19, 2.88, -15.89
-18, -4.29, -15.11
-17, 2.84, -15.91
-16, -5.32, -14.84
-15, 4.63, -15.60
-14, -4.45, -14.10
-13, 5.28, -15.11
-12, -2.95, -13.57
-11, 7.29, -14.98
-10, -2.46, -13.93
-9, 7.76, -14.98
-8, -0.74, -13.88
-7, 7.04, -14.93
-6, 0.04, -13.75
-5, 6.03, -13.99
-4, 4.58, -13.61
-3, 1.74, -13.23
-2, 2.70, -13.81
-1, 2.59, -13.66
0, 0.54, -13.52
-29, 2.88, -13.68
-28, -0.83, -13.17
-27, 4.40, -13.21
-26, -1.41, -12.49
-25, 6.06, -13.28
-24, -1.77, -12.54
-23, 6.10, -13.63
-22, -3.40, -12.67
-21, 5.86, -13.93
-20, -3.91, -12.85
-19, 6.75, -13.97
-18, 7.69, -13.79
-17, -1.18, -12.43
-16, 6.97, -13.61
-15, -0.58, -12.81
-14, 6.57, -13.66
-13, -0.11, -13.14
-12, 4.72, -13.79
-11, 0.45, -13.28
-10, 3.15, -13.46
-9, 1.18, -13.23
-8, 2.12, -12.81
-7, 3.24, -12.85
-6, -0.02, -12.65
-5, 4.22, -12.79
-4, -1.23, -12.38
-3, 4.31, -12.99
-2, -2.95, -11.91
-1, 4.56, -12.54
0, -4.14, -11.40
-29, 5.21, -12.23
-28, -4.52, -11.18
-27, 6.03, -12.20
-26, -4.20, -11.06
-25, 6.44, -12.07
-24, -3.31, -10.64
-23, 5.30, -12.05
-22, -3.33, -11.02
-21, 5.05, -11.42
-20, -2.41, -10.44
-19, 3.73, -11.06
-18, -1.30, -10.51
-17, 1.88, -11.09
-16, -0.31, -10.64
-15, 0.76, -10.44
-14, 0.67, -10.39
-13, -0.16, -10.26
-12, 2.41, -10.84
-11, -1.10, -10.39
-10, 4.05, -10.86
-9, -3.67, -10.30
-8, 2.68, -11.20
-7, -5.39, -10.21
-6, 3.22, -11.15
-5, -5.10, -10.08
-4, 4.78, -10.91
-3, -5.19, -10.21
-2, 5.05, -11.47
-1, -4.49, -10.01
0, 5.81, -10.64
-29, -3.46, -9.21
-28, 4.11, -10.01
-27, -4.27, -8.94
-26, -4.54, -8.65
-25, 0.96, -8.56
-24, -2.95, -8.16
-23, -1.50, -8.36
-22, -1.32, -8.18
-21, 0.49, -8.00
-20, -1.54, -7.42
-19, 3.04, -7.64
-18, -2.17, -7.00
-17, -2.24, -6.82
-16, -2.44, -5.86
-15, 6.79, -6.91
-14, -3.06, -5.92
-13, 7.31, -6.66
-12, -2.59, -5.61
-11, 8.29, -6.48
-10, -1.39, -5.30
-9, 7.49, -6.30
-8, -0.13, -5.32
-7, 7.38, -5.70
-6, 0.38, -4.96
-5, 6.71, -5.41
-4, 1.43, -4.98
-3, 3.13, -4.90
-2, 5.61, -4.67
-1, 5.86, -4.47
0, 3.42, -4.36
-29, 6.08, -4.63
-28, 1.79, -3.98
-27, 7.24, -4.49
-26, 1.36, -3.40
-25, 9.05, -4.22
-24, 1.94, -3.22
-23, 10.37, -4.27
-22, 1.48, -3.42
-21, 11.31, -4.20
-20, 0.31, -3.17
-19, 10.64, -4.22
-18, 1.86, -2.91
-17, 11.04, -3.76
-16, 2.53, -2.62
-15, 10.68, -3.22
-14, 3.31, -1.86
-13, 9.79, -2.62
-12, 4.14, -1.97
-11, 9.59, -2.12
-10, 5.25, -2.06
-9, 8.00, -2.17
-8, 6.97, -2.19
-7, 9.79, -2.06
-6, 6.48, -1.77
-5, 10.55, -2.30
-4, 6.39, -1.79
-3, 5.36, -1.36
-2, 4.09, -0.87
-1, 13.66, -1.81
0, 13.37, -1.32
-29, 3.33, -0.02
-28, 12.94, -1.12
-27, 4.09, -0.02
-26, 13.17, -0.83
-25, 3.91, 0.02
-24, 11.27, -0.87
-23, 4.11, -0.07
-22, 9.66, -0.76
-21, 5.12, -0.13
-20, 8.74, -0.56
-19, 5.61, -0.45
-18, 6.28, -0.49
-17, 7.06, -0.63
-16, 4.81, -0.42
-15, 8.07, -0.65
-14, 3.93, -0.22
-13, 2.30, -0.45
-12, 9.66, -1.34
-11, 0.60, -0.42
-10, 9.81, -0.98
-9, 0.67, 0.07
-8, 9.61, -1.16
-7, 0.09, -0.04
-6, 8.90, -1.59
-5, -1.01, -0.13
-4, 8.43, -1.32
-3, 0.02, -0.16
-2, 7.85, -0.92
-1, 0.65, -0.07
0, 7.26, -0.58
-29, 0.92, -0.20
-28, 4.38, -0.87
-27, 0.80, -0.47
-26, 3.15, -0.49
-25, 2.01, -0.36
-24, 1.01, -0.40
-23, -0.38, -0.38
-22, 4.31, -0.60
-21, -0.13, 0.56
-20, 6.39, 0.04
-19, -0.34, 1.05
-18, 47.18, -81832.43
-17, -8.16, -77505.42
-16, -42.56, -111622.59
-15, -28.95, -114109.11
-14, -9.21, -87701.71
-13, -23.65, -79537.13
-12, -35.09, -92129.16
-11, -36.17, -94997.70
-10, -42.94, -83924.30
-9, -42.92, -77675.56
-8, -44.41, -80239.22
-7, -44.75, -80786.75
-6, -66.41, -76457.58
-5, -63.37, -72927.68
-4, -64.06, -71653.88
-3, -57.04, -70115.09
-2, -82.70, -68179.63
-1, -78.23, -66587.29
0, -80.51, -64387.88
-29, -70.54, -61710.52
-28, -92.96, -60281.26
-27, -92.31, -59668.13
-26, -96.02, -57662.93
-25, -85.41, -54670.33
-24, -103.29, -53122.94
-23, -105.95, -52805.43
-22, -109.26, -51259.23
-21, -102.42, -48449.30
-20, -112.18, -46712.75
-19, -117.73, -46328.10
-18, -116.94, -45172.25
-17, -116.47, -42760.02
-16, -118.82, -40945.48
-15, -128.63, -40364.81
-14, -125.28, -39451.27
-13, -129.86, -37471.60
-12, -124.45, -35706.37
-11, -137.42, -34933.07
-10, -131.61, -34136.36
-9, -139.68, -32534.99
-8, -131.16, -30905.75
-7, -145.02, -29999.28
-6, -137.55, -29242.31
-5, -146.94, -27936.17
-4, -139.36, -26482.95
-3, -151.57, -25513.24
-2, -144.82, -24761.55
-1, -152.66, -23671.19
0, -145.58, -22399.28
-29, -153.69, -21425.15
-28, -150.83, -20672.32
-27, -155.81, -19735.00
-26, -153.51, -18629.75
-25, -156.33, -17692.16
-24, -157.40, -16946.08
-23, -156.28, -16117.89
-22, -159.84, -15156.38
-21, -157.27, -14279.37
-20, -163.48, -13552.82
-19, -158.27, -12805.67
-18, -165.43, -11964.08
-17, -157.98, -11158.68
-16, -167.48, -10463.81
-15, -158.94, -9781.10
-14, -168.89, -9038.44
-13, -159.48, -8307.05
-12, -170.05, -7652.99
-11, -160.22, -7025.51
-10, -162.43, -5704.86
-9, -170.66, -5097.20
-8, -162.16, -4519.92
-7, -169.25, -3928.36
-6, -163.93, -3334.70
-5, -170.21, -2775.95
-4, -167.66, -2245.99
-3, -170.97, -1713.91
-2, -168.67, -1180.73
-1, -169.25, -671.00
0, -170.97, -186.30
-29, -168.33, 293.34
-28, -171.55, 771.85
-27, -166.36, 1233.99
-26, -172.09, 1675.33
-25, -166.05, 2107.90
-24, -166.05, 2954.01
-23, -174.72, 3353.95
-22, -165.56, 3743.63
-21, -175.13, 4128.03
-20, -165.16, 4502.69
-19, -175.46, 4863.40
-18, -164.96, 5213.59
-17, -173.83, 5557.38
-16, -165.49, 5892.72
-15, -173.43, 6216.49
-14, -165.83, 6530.20
-13, -172.18, 6836.86
-12, -165.02, 7704.98
-11, -165.43, 7977.65
-10, -164.29, 8500.19
-9, -165.87, 8748.74
-8, -161.49, 8990.18
-7, -165.36, 9224.88
-6, -158.76, 9452.06
-5, -165.81, 9671.58
-4, -157.80, 9884.28
-3, -166.01, 10090.60
-2, -155.59, 10290.18
-1, -165.47, 10482.83
0, -155.50, 10669.09
-29, -164.17, 10849.33
-28, -154.47, 11023.45
-27, -163.35, 11191.29
-26, -160.82, 11509.45
-25, -151.46, 11660.12
-24, -156.86, 11805.09
-23, -149.64, 11944.57
-22, -154.29, 12078.81
-21, -149.22, 12207.92
-20, -151.77, 12331.84
-19, -149.85, 12450.70
-18, -148.59, 12564.72
-17, -149.58, 12674.00
-16, -145.98, 12778.56
-15, -148.44, 12878.49
-14, -142.89, 12973.96
-13, -148.44, 13065.06
-12, -140.55, 13151.88
-11, -147.88, 13234.42
-10, -137.89, 13312.90
-9, -145.73, 13387.35
-8, -136.12, 13457.87
-7, -144.71, 13524.52
-6, -144.30, 13646.65
-5, -133.60, 13702.29
-4, -141.53, 13754.39
-3, -132.90, 13803.07
-2, -139.30, 13848.38
-1, -132.12, 13890.42
0, -137.87, 13929.25
-29, -132.23, 13964.92
-28, -134.38, 13997.55
-27, -131.12, 14027.19
-26, -131.20, 14053.90
-25, -131.05, 14077.75
-24, -128.79, 14098.83
-23, -130.53, 14117.18
-22, -126.02, 14132.89
-21, -129.08, 14145.99
-20, -122.76, 14156.57
-19, -128.61, 14164.68
-18, -119.67, 14170.38
-17, -127.92, 14173.71
-16, -117.64, 14174.78
-15, -115.45, 14170.24
-14, -124.43, 14164.75
-13, -114.08, 14157.19
-12, -114.22, 14136.09
-11, -121.75, 14122.63
-10, -113.12, 14107.30
-9, -119.49, 14090.16
-8, -112.61, 14071.25
-7, -116.68, 14050.60
-6, -111.40, 14028.27
-5, -113.06, 14004.33
-4, -111.54, 13978.78
-3, -109.30, 13951.69
-2, -110.31, 13923.10
-1, -107.36, 13893.06
0, -110.04, 13861.59
-29, -104.63, 13828.73
-28, -110.40, 13794.56
-27, -101.52, 13759.06
-26, -108.45, 13722.32
-25, -99.09, 13684.34
-24, -107.94, 13645.16
-23, -98.93, 13604.83
-22, -108.00, 13563.39
-21, -97.97, 13520.86
-20, -106.68, 13477.27
-19, -97.12, 13432.68
-18, -105.25, 13387.08
-17, -96.54, 13340.55
-16, -103.24, 13293.09
-15, -95.42, 13244.73
-14, -100.76, 13195.51
-13, -95.02, 13145.44
-12, -98.55, 13094.59
-11, -95.78, 13042.96
-10, -94.93, 12990.56
-9, -94.32, 12937.43
-8, -91.69, 12883.63
-7, -94.73, 12829.14
-6, -90.61, 12774.00
-5, -88.83, 12661.90
-4, -95.15, 12604.97
-3, -86.30, 12547.49
-2, -94.23, 12489.48
-1, -84.56, 12430.97
0, -92.92, 12371.96
-29, -82.79, 12312.50
-28, -92.29, 12252.58
-27, -90.66, 12131.52
-26, -80.98, 12070.39
-25, -88.69, 12008.92
-24, -79.75, 11947.10
-23, -86.48, 11884.94
-22, -80.13, 11822.46
-21, -83.75, 11759.70
-20, -80.33, 11696.67
-19, -81.27, 11633.39
-18, -80.00, 11569.84
-17, -79.55, 11506.07
-16, -80.38, 11442.10
-15, -76.73, 11377.93
-14, -79.95, 11313.60
-13, -74.27, 11249.07
-12, -79.68, 11184.41
-11, -72.04, 11119.61
-10, -78.63, 11054.68
-9, -68.96, 10989.64
-8, -77.61, 10924.48
-7, -67.46, 10859.26
-6, -76.55, 10793.97
-5, -66.23, 10728.59
-4, -75.93, 10663.19
-3, -65.49, 10597.74
-2, -73.25, 10532.25
-1, -63.68, 10466.76
0, -69.63, 10401.27
-29, -62.38, 10335.78
-28, -68.49, 10270.29
-27, -64.46, 10204.84
-26, -66.83, 10139.42
-25, -64.40, 10074.04
-24, -64.04, 10008.71
-23, -64.75, 9943.44
-22, -62.07, 9878.24
-21, -64.17, 9813.13
-20, -59.84, 9748.09
-19, -63.79, 9683.15
-18, -56.97, 9618.31
-17, -63.50, 9553.60
-16, -55.28, 9488.99
-15, -63.39, 9424.50
-14, -54.00, 9360.15
-13, -63.23, 9295.96
-12, -53.47, 9231.87
-11, -62.67, 9167.95
-10, -60.04, 9040.59
-9, -49.64, 8977.17
-8, -57.42, 8913.92
-7, -48.84, 8850.84
-6, -55.54, 8787.95
-5, -49.67, 8725.27
-4, -53.42, 8662.75
-3, -49.55, 8600.46
-2, -52.03, 8538.37
-1, -50.63, 8476.50
0, -48.64, 8414.83
-29, -50.31, 8353.36
-28, -46.74, 8292.14
-27, -51.34, 8231.14
-26, -46.27, 8170.37
-25, -53.13, 8109.84
-24, -45.20, 8049.56
-23, -52.03, 7989.50
-22, -43.05, 7929.68
-21, -51.72, 7870.14
-20, -40.55, 7810.84
-19, -49.73, 7751.79
-18, -39.85, 7692.98
-17, -49.33, 7634.44
-16, -39.92, 7576.19
-15, -48.79, 7518.17
-14, -39.85, 7460.43
-13, -47.01, 7402.96
-12, -41.51, 7345.77
-11, -46.49, 7288.86
-10, -42.00, 7232.20
-9, -43.85, 7175.85
-8, -41.31, 7119.77
-7, -41.51, 7063.96
-6, -41.46, 7008.43
-5, -39.27, 6953.20
-4, -41.86, 6898.26
-3, -37.06, 6843.61
-2, -41.57, 6789.23
-1, -34.62, 6735.16
0, -41.31, 6681.38
-29, -31.99, 6627.87
-28, -40.79, 6574.68
-27, -30.00, 6521.79
-26, -39.18, 6469.18
-25, -28.52, 6416.87
-24, -37.93, 6364.86
-23, -28.79, 6313.16
-22, -38.04, 6261.73
-21, -28.50, 6210.63
-20, -36.30, 6159.83
-19, -28.50, 6109.31
-18, -33.80, 6059.11
-17, -29.08, 6009.20
-16, -32.99, 5959.60
-15, -29.24, 5910.29
-14, -30.26, 5861.30
-13, -28.41, 5812.59
-12, -26.42, 5764.20
-11, -27.76, 5716.12
-10, -22.73, 5668.33
-9, -27.38, 5620.84
-8, -20.99, 5573.65
-7, -27.69, 5526.78
-6, -19.85, 5480.20
-5, -27.89, 5433.93
-4, -18.75, 5387.95
-3, -26.64, 5342.27
-2, -16.72, 5296.89
-1, -27.00, 5251.83
0, -16.21, 5207.06
-29, -25.73, 5162.58
-28, -16.79, 5118.41
-27, -25.15, 5074.54
-26, -16.27, 5030.95
-25, -23.96, 4987.68
-24, -16.34, 4944.70
-23, -21.82, 4902.01
-22, -17.81, 4859.63
-21, -20.68, 4817.52
-20, -17.95, 4775.72
-19, -17.64, 4734.21
-18, -18.24, 4692.99
-17, -15.85, 4652.07
-16, -19.92, 4611.43
-15, -14.42, 4571.09
-14, -20.05, 4531.03
-13, -12.65, 4491.27
-12, -20.03, 4451.77
-11, -11.51, 4412.59
-10, -19.92, 4373.68
-9, -10.55, 4335.05
-8, -20.00, 4296.70
-7, -10.57, 4258.63
-6, -20.12, 4220.86
-5, -10.33, 4183.35
-4, -18.57, 4146.14
-3, -10.01, 4109.19
-2, -17.19, 4072.53
-1, -10.19, 4036.12
0, -16.25, 4000.02
-29, -14.37, 3928.59
-28, -11.40, 3893.29
-27, -12.76, 3858.27
-26, -12.25, 3823.49
-25, -12.38, 3789.00
-24, -14.19, 3754.78
-23, -9.50, 3720.80
-22, -15.04, 3687.10
-21, -8.31, 3653.66
-20, -14.35, 3620.47
-19, -6.93, 3587.54
-18, -14.19, 3554.89
-17, -4.27, 3522.48
-16, -14.64, 3490.31
-15, -4.07, 3458.42
-14, -14.51, 3426.77
-13, -4.05, 3395.39
-12, -13.81, 3364.23
-11, -3.82, 3333.34
-10, -12.63, 3302.69
-9, -4.31, 3272.29
-8, -11.33, 3242.12
-7, -6.03, 3212.21
-6, -10.77, 3182.53
-5, -6.50, 3153.09
-4, -8.99, 3123.90
-3, -7.62, 3094.96
-2, -8.07, 3066.23
-1, -8.85, 3037.74
0, -6.26, 3009.48
-29, -9.32, 2981.48
-28, -4.56, 2953.67
-27, -10.97, 2926.11
-26, -3.33, 2898.78
-25, -10.86, 2871.68
-24, -1.97, 2844.80
-23, -11.98, 2818.15
-22, -2.53, 2791.71
-21, -13.05, 2765.49
-20, -2.91, 2739.50
-19, -12.29, 2713.72
-18, -2.12, 2688.15
-17, -12.00, 2662.81
-16, -2.79, 2637.68
-15, -10.26, 2612.76
-14, -2.73, 2588.06
-13, -3.55, 2539.27
-12, -6.88, 2515.20
-11, -4.56, 2491.33
-10, -5.05, 2467.65
-9, -4.05, 2444.19
-8, -2.64, 2420.92
-7, -5.90, 2397.85
-6, -1.07, 2374.98
-5, -5.74, 2352.32
-4, 0.87, 2329.83
-3, -5.83, 2307.55
-2, 1.86, 2285.47
-1, -7.29, 2263.58
0, 1.61, 2241.88
-29, -7.42, 2220.35
-28, 3.38, 2199.03
-27, -7.11, 2177.89
-26, 2.64, 2156.94
-25, -6.10, 2136.16
-24, 3.24, 2115.57
-23, -4.58, 2095.16
-22, -4.22, 2054.89
-21, 1.07, 2035.01
-20, -4.20, 2015.32
-19, 0.07, 1995.81
-18, -1.94, 1976.45
-17, -1.45, 1957.28
-16, -0.56, 1938.28
-15, -3.02, 1919.43
-14, 0.13, 1900.77
-13, -3.04, 1882.26
-12, 2.26, 1863.93
-11, -4.52, 1845.76
-10, 2.06, 1827.77
-9, -5.39, 1809.91
-8, 3.67, 1792.23
-7, -5.50, 1774.71
-6, 5.23, 1757.34
-5, -4.67, 1740.13
-4, 5.79, 1723.10
-3, -3.84, 1706.20
-2, 5.95, 1689.43
-1, -3.31, 1672.85
0, 4.87, 1656.42
-29, -3.51, 1640.13
-28, 3.82, 1623.97
-27, -2.88, 1607.98
-26, 2.35, 1592.14
-25, -1.68, 1576.42
-24, 0.36, 1560.87
-23, -1.14, 1545.44
-22, -1.45, 1530.18
-21, 0.56, 1515.05
-20, -2.10, 1500.05
-19, 2.86, 1485.21
-18, -2.97, 1470.48
-17, 3.67, 1455.90
-16, -3.76, 1441.44
-15, 4.98, 1427.14
-14, -3.46, 1412.94
-13, 5.81, 1398.91
-12, -3.20, 1384.98
-11, 6.15, 1371.19
-10, -3.38, 1357.53
-9, 6.62, 1344.01
-8, -1.88, 1330.60
-7, 7.17, 1317.32
-6, -1.81, 1304.16
-5, 6.44, 1291.13
-4, -1.39, 1278.21
-3, 0.00, 1252.75
-2, 4.45, 1240.21
-1, 1.70, 1227.76
0, 2.97, 1215.44
-29, 3.08, 1203.26
-28, 0.85, 1191.17
-27, 4.09, 1179.19
-26, -0.76, 1167.34
-25, 4.94, 1155.59
-24, -1.65, 1143.96
-23, 5.90, 1132.45
-22, -1.10, 1121.03
-21, 7.87, 1109.72
-20, -1.50, 1098.52
-19, 7.80, 1087.43
-18, -2.86, 1076.46
-17, 7.09, 1065.57
-16, -1.70, 1054.80
-15, 8.09, 1044.12
-14, -0.02, 1033.57
-13, 7.49, 1023.08
-12, -0.40, 1012.71
-11, 6.08, 1002.45
-10, 0.49, 992.28
-9, 4.36, 982.20
-8, 0.98, 972.23
-7, 2.70, 962.35
-6, 1.18, 942.89
-5, 2.95, 933.27
-4, -0.38, 923.78
-3, 3.84, 914.37
-2, -1.12, 905.04
-1, 5.03, 895.81
0, -2.03, 886.67
-29, 6.64, 877.62
-28, -2.68, 868.66
-27, 6.62, 859.78
-26, -3.08, 850.98
-25, 6.50, 842.28
-24, -3.08, 833.65
-23, 6.71, 825.11
-22, -2.91, 816.67
-21, 6.08, 808.31
-20, -1.70, 800.01
-19, 5.72, 791.79
-18, 0.36, 783.67
-17, 5.79, 775.63
-16, 1.27, 767.65
-15, 4.60, 759.76
-14, 2.70, 751.96
-13, 3.24, 744.20
-12, 3.49, 736.56
-11, 0.49, 728.96
-10, 3.51, 721.45
-9, -0.63, 714.03
-8, 4.72, 706.65
-7, -1.59, 699.36
-6, 5.92, 692.14
-5, -3.29, 684.99
-4, 5.72, 677.93
-3, -3.38, 670.91
-2, 6.91, 663.98
-1, -3.53, 657.10
0, 6.37, 650.30
-29, 6.06, 636.91
-28, -2.32, 630.30
-27, 5.05, 623.77
-26, -2.35, 617.31
-25, 3.78, 610.90
-24, -1.90, 604.55
-23, 3.44, 598.27
-22, -0.29, 592.05
-21, 0.74, 585.91
-20, 1.18, 579.80
-19, 0.76, 573.79
-18, 2.68, 567.80
-17, -0.58, 561.90
-16, 3.98, 556.04
-15, -2.03, 550.26
-14, 4.22, 544.51
-13, -3.24, 538.83
-12, 3.84, 533.22
-11, -5.57, 527.66
-10, 4.02, 522.14
-9, -6.26, 516.68
-8, 3.84, 511.30
-7, -5.70, 505.95
-6, 3.49, 500.66
-5, -5.16, 495.43
-4, 2.97, 490.24
-3, -5.39, 485.10
-2, 2.08, 480.03
-1, -3.98, 475.00
0, -2.10, 465.10
-29, 0.20, 460.20
-28, -1.52, 455.37
-27, -0.25, 450.59
-26, 0.00, 445.87
-25, -1.94, 441.18
-24, -2.73, 431.95
-23, 3.17, 427.41
-22, -3.15, 422.92
-21, -4.85, 414.07
-20, 3.73, 409.71
-19, -5.86, 405.37
-18, 4.83, 401.10
-17, -5.57, 396.88
-16, 4.60, 392.70
-15, -4.36, 388.54
-14, 4.81, 384.45
-13, -4.65, 380.38
-12, 3.11, 376.38
-11, -4.29, 372.40
-10, 1.50, 368.47
-9, -3.84, 364.56
-8, -3.40, 356.89
-7, -1.94, 353.11
-6, -1.41, 349.38
-5, -2.68, 345.67
-4, -1.30, 342.00
-3, -5.12, 338.38
-2, -0.67, 334.81
-1, -5.99, 331.25
0, 1.07, 327.74
-29, -6.93, 324.26
-28, 1.70, 320.81
-27, -7.98, 317.42
-26, 2.91, 307.40
-25, -7.13, 304.14
-24, 1.81, 300.90
-23, -7.11, 297.70
-22, 1.97, 294.53
-21, -6.37, 291.40
-20, 0.76, 288.29
-19, -4.69, 285.21
-18, 0.18, 282.17
-17, -3.96, 279.17
-16, -1.34, 276.20
-15, -2.97, 273.25
-14, -4.02, 270.32
-13, -2.59, 267.44
-12, -5.10, 264.60
-11, -0.96, 261.76
-10, -5.16, 258.97
-9, 0.45, 256.20
-8, 2.55, 250.74
-7, -5.92, 248.06
-6, 2.50, 245.42
-5, -7.55, 242.78
-4, 1.70, 240.19
-3, -8.00, 237.62
-2, 1.81, 235.07
-1, -6.66, 232.55
0, 2.82, 230.07
-29, -6.35, 227.61
-28, -4.36, 222.74
-27, 1.18, 220.34
-26, -3.82, 218.00
-25, -0.29, 215.65
-24, -2.46, 213.33
-23, -0.94, 211.05
-22, -0.80, 208.77
-21, -1.97, 206.53
-20, -0.40, 204.32
-19, -4.63, 202.10
-18, 1.03, 199.94
-17, -4.85, 197.79
-16, 2.88, 195.67
-15, -5.19, 193.54
-14, -5.83, 189.41
-13, 4.90, 187.37
-12, -4.36, 185.34
-11, 5.30, 183.35
-10, -5.10, 181.36
-9, 5.23, 179.42
-8, -4.43, 177.47
-7, 3.89, 175.57
-6, -3.13, 173.67
-5, 4.18, 171.80
-4, -1.97, 169.94
-3, 4.69, 168.11
-2, 1.14, 166.27
-1, 2.55, 164.49
0, 1.18, 162.72
-29, 0.20, 160.95
-28, 2.19, 159.21
-27, -0.78, 157.49
-26, 2.64, 155.79
-25, -1.97, 154.09
-24, 3.55, 152.42
-23, -3.60, 150.78
-22, 5.41, 149.15
-21, -3.84, 147.52
-20, 6.19, 145.93
-19, -3.60, 144.35
-18, 6.19, 142.78
-17, -3.96, 141.24
-16, 6.10, 139.70
-15, -3.20, 138.18
-14, 5.97, 136.68
-13, -2.21, 135.21
-12, 4.65, 133.73
-11, -1.48, 132.28
-10, 5.12, 130.85
-9, 0.40, 129.42
-8, 3.15, 128.01
-7, 0.78, 126.62
-6, 1.18, 125.24
-5, 1.63, 123.87
-4, 0.89, 122.53
-3, 3.08, 121.19
-2, -1.27, 119.87
-1, 4.40, 118.58
0, -1.94, 117.28
-29, -2.73, 114.75
-28, 4.69, 113.50
-27, -4.94, 112.25
-26, -4.05, 109.81
-25, 6.46, 108.63
-24, -4.09, 107.44
-23, -4.83, 105.10
-22, 4.65, 103.96
-21, -2.17, 102.82
-20, 4.54, 101.70
-19, -1.30, 100.58
-18, 2.70, 99.49
-17, -0.49, 98.39
-16, 2.75, 97.32
-15, 1.99, 96.27
-14, 1.68, 95.22
-13, 3.00, 94.17
-12, 0.87, 93.14
-11, 0.76, 91.11
-10, -0.34, 89.12
-9, 8.14, 88.16
-8, 0.00, 87.19
-7, 9.39, 86.23
-6, 0.34, 85.29
-5, 10.59, 84.36
-4, 0.27, 83.42
-3, 9.97, 82.50
-2, 0.87, 81.61
-1, 0.56, 79.82
0, 8.81, 78.95
-29, 1.10, 78.07
-28, 6.91, 77.23
-27, 3.04, 76.38
-26, 6.12, 75.53
-25, 4.58, 74.70
-24, 5.05, 73.89
-23, 6.48, 73.07
-22, 4.81, 72.26
-21, 6.97, 71.48
-20, 2.84, 70.70
-19, 7.53, 69.92
-18, 0.78, 69.13
-17, 9.14, 68.37
-16, 0.29, 67.64
-15, 9.23, 66.88
-14, 0.34, 66.14
-13, 10.10, 65.42
-12, 0.72, 64.71
-11, 11.00, 63.99
-10, 0.92, 63.28
-9, 10.89, 62.58
-8, 1.99, 61.89
-7, 10.08, 61.22
-6, 2.70, 60.53
-5, 8.85, 59.86
-4, 3.73, 59.21
-3, 8.52, 58.56
-2, 4.38, 57.91
-1, 5.77, 57.27
0, 5.32, 56.64
-29, 5.05, 56.01
-28, 8.07, 55.39
-27, 4.69, 54.78
-26, 8.92, 54.18
-25, 3.73, 53.58
-24, 8.83, 53.00
-23, 1.61, 52.39
-22, 9.79, 51.81
-21, 1.14, 51.25
-20, 11.31, 50.67
-19, 2.62, 50.11
-18, 12.56, 49.58
-17, 1.74, 49.02
-16, 2.03, 47.94
-15, 2.93, 46.87
-14, 10.08, 46.36
-13, 3.96, 45.84
-12, 9.25, 45.35
-11, 5.86, 44.84
-10, 6.97, 43.85
-9, 7.85, 43.36
-8, 7.82, 42.89
-7, 6.21, 42.40
-6, 5.57, 41.46
-5, 11.09, 41.02
-4, 11.71, 40.10
-3, 3.38, 39.65
-2, 13.30, 39.23
-1, 4.54, 38.78
0, 13.63, 38.36
-29, 3.82, 37.93
-28, 14.10, 37.51
-27, 4.18, 37.08
-26, 13.12, 36.68
-25, 3.91, 36.28
-24, 12.09, 35.87
-23, 5.12, 35.47
-22, 6.79, 34.69
-21, 11.13, 34.29
-20, 6.88, 33.91
-19, 9.92, 33.53
-18, 10.35, 33.17
-17, 9.21, 32.79
-16, 10.73, 32.43
-15, 7.26, 32.07
-14, 11.09, 31.72
-13, 4.96, 31.36
-12, 11.42, 31.00
-11, 2.97, 30.67
-10, 11.27, 30.33
-9, 1.92, 29.97
-8, 11.87, 29.64
-7, 1.65, 29.33
-6, 12.11, 28.99
-5, 2.62, 28.68
-4, 13.05, 28.34
-3, 2.77, 28.03
-2, 10.48, 27.72
-1, 1.97, 27.40
0, 9.14, 27.11
-29, 3.49, 26.80
-28, 8.72, 26.51
-27, 4.94, 26.20
-26, 7.22, 25.91
-25, 5.45, 25.62
-24, 6.46, 25.35
-23, 6.73, 25.06
-22, 4.31, 24.77
-21, 7.80, 24.50
-20, 2.97, 24.23
-19, 2.97, 23.69
-18, 11.51, 23.42
-17, 2.28, 23.16
-16, 11.71, 22.89
-15, 1.61, 22.64
-14, 11.56, 22.40
-13, 1.41, 22.13
-12, 10.95, 21.88
-11, 2.39, 21.64
-10, 11.67, 21.39
-9, 3.62, 21.17
-8, 11.33, 20.92
-7, 3.89, 20.70
-6, 10.35, 20.45
-5, 5.48, 20.23
-4, 9.88, 20.00
-3, 7.87, 19.78
-2, 9.43, 19.56
-1, 8.94, 19.33
0, 8.20, 19.11
-29, 9.88, 18.91
-28, 6.71, 18.69
-27, 12.09, 18.48
-26, 5.97, 18.28
-25, 13.01, 18.06
-24, 5.32, 17.86
-23, 13.19, 17.66
-22, 13.28, 17.28
-21, 3.55, 17.08
-20, 13.03, 16.88
-19, 4.20, 16.70
-18, 15.04, 16.52
-17, 5.28, 16.32
-16, 14.33, 16.14
-15, 6.66, 15.96
-14, 13.41, 15.78
-13, 7.06, 15.60
-12, 11.60, 15.42
-11, 7.82, 15.24
-10, 10.17, 15.09
-9, 8.85, 14.91
-8, 9.12, 14.75
-7, 9.12, 14.57
-6, 6.30, 14.42
-5, 9.97, 14.26
-4, 4.54, 14.08
-3, 11.22, 13.93
-2, 4.05, 13.77
-1, 12.52, 13.61
0, 3.96, 13.46
-29, 13.43, 13.32
-28, 4.40, 13.17
-27, 13.59, 13.01
-26, 3.69, 12.87
-25, 13.75, 12.72
-24, 3.89, 12.58
-23, 12.56, 12.43
-22, 4.81, 12.29
-21, 12.43, 12.16
-20, 4.69, 12.03
-19, 10.93, 11.89
-18, 4.69, 11.76
-17, 8.65, 11.62
-16, 6.44, 11.49
-15, 7.06, 11.35
-14, 7.53, 11.22
-13, 6.41, 11.11
-12, 9.52, 10.97
-11, 5.97, 10.86
-10, 11.22, 10.73
-9, 5.79, 10.62
-8, 11.91, 10.48
-7, 3.44, 10.37
-6, 11.80, 10.26
-5, 3.15, 10.15
-4, 3.44, 9.90
-3, 12.67, 9.79
-2, 1.88, 9.68
-1, 10.93, 9.59
0, 2.59, 9.48
-29, 12.43, 9.37
-28, 4.36, 9.25
-27, 10.89, 9.14
-26, 4.38, 9.05
-25, 9.19, 8.94
-24, 5.72, 8.85
-23, 8.49, 8.74
-22, 6.21, 8.65
-21, 6.26, 8.54
-20, 6.84, 8.45
-19, 4.25, 8.36
-18, 7.87, 8.27
-17, 1.61, 8.16
-16, 7.47, 8.07
-15, 0.51, 7.98
-14, 9.05, 7.89
-13, 0.78, 7.80
-12, 10.13, 7.71
-11, -0.09, 7.62
-10, 9.32, 7.53
-9, 0.11, 7.47
-8, 9.52, 7.38
-7, -0.20, 7.29
-6, 9.70, 7.20
-5, 0.34, 7.13
-4, 9.21, 7.04
-3, 2.26, 6.95
-2, 8.90, 6.88
-1, 3.73, 6.79
0, 7.35, 6.73
-29, 4.90, 6.66
-28, 5.90, 6.57
-27, 5.65, 6.50
-26, 4.22, 6.41
-25, 7.29, 6.35
-24, 3.17, 6.28
-23, 8.25, 6.21
-22, 2.19, 6.15
-21, 9.52, 6.08
-20, 1.97, 5.99
-19, 10.86, 5.92
-18, 2.37, 5.86
-17, 12.07, 5.79
-16, 2.35, 5.72
-15, 11.53, 5.65
-14, 1.30, 5.61
-13, 10.53, 5.54
-12, 1.59, 5.48
-11, 10.73, 5.41
-10, 3.44, 5.34
-9, 9.43, 5.30
-8, 8.18, 5.16
-7, 4.83, 5.12
-6, 7.00, 5.05
-5, 5.97, 4.98
-4, 5.74, 4.94
-3, 6.10, 4.83
-2, 9.90, 4.76
-1, 3.91, 4.72
0, 10.26, 4.67
-29, 10.73, 4.56
-28, 2.77, 4.52
-27, 11.49, 4.45
-26, 1.10, 4.40
-25, 11.80, 4.36
-24, 1.30, 4.31
-23, 10.28, 4.25
-22, 0.83, 4.20
-21, 10.06, 4.16
-20, 1.41, 4.11
-19, 10.10, 4.07
-18, 2.57, 4.02
-17, 8.34, 3.98
-16, 2.88, 3.93
-15, 6.64, 3.89
-14, 4.85, 3.84
-13, 5.21, 3.80
-12, 5.81, 3.76
-11, 4.74, 3.71
-10, 6.93, 3.67
-9, 3.00, 3.62
-8, 2.01, 3.53
-7, 9.19, 3.51
-6, 1.48, 3.46
-5, 10.39, 3.42
-4, 1.45, 3.38
-3, 11.00, 3.33
-2, 0.96, 3.31
-1, 10.57, 3.26
0, -0.56, 3.22
-29, 9.57, 3.20
-28, 0.54, 3.15
-27, 9.05, 3.13
-26, 1.83, 3.08
-25, 8.58, 3.04
-24, 2.08, 3.02
-23, 6.71, 2.97
-22, 2.68, 2.95
-21, 5.25, 2.88
-20, 4.49, 2.84
-19, 5.65, 2.82
-18, 2.66, 2.77
-17, 1.74, 2.70
-16, 8.29, 2.68
-15, 1.14, 2.66
-14, 8.09, 2.62
-13, -0.60, 2.59
-12, 9.81, 2.57
-11, -0.18, 2.53
-10, 9.52, 2.50
-9, 0.04, 2.48
-8, 9.75, 2.44
-7, 0.60, 2.41
-6, 9.43, 2.39
-5, 0.89, 2.37
-4, 7.06, 2.35
-3, 0.31, 2.30
-2, 6.26, 2.28
-1, 1.65, 2.26
0, 4.11, 2.24
-29, 1.90, 2.21
-28, 2.97, 2.19
-27, 2.91, 2.15
-26, 1.65, 2.12
-25, 4.52, 2.10
-24, 0.18, 2.08
-23, 6.33, 2.06
-22, -0.49, 2.03
-21, 7.93, 2.01
-20, -0.25, 1.99
-19, 8.07, 1.97
-18, -0.27, 1.94
-17, 9.48, 1.92
-16, -0.94, 1.90
-15, 9.54, 1.88
-14, -1.12, 1.86
-13, 8.74, 1.83
-12, -0.69, 1.81
-11, 8.09, 1.79
-10, 1.03, 1.77
-9, 7.69, 1.74
-8, 1.79, 1.72
-7, 6.77, 1.70
-6, 3.44, 1.70
-5, 5.07, 1.68
-4, 4.56, 1.65
-3, 4.22, 1.63
-2, 5.63, 1.61
-1, 2.86, 1.59
0, 7.62, 1.56
-29, 1.36, 1.56
-28, 7.89, 1.54
-27, 0.11, 1.52
-26, 8.83, 1.50
-25, -0.09, 1.48
-24, 8.58, 1.48
-23, -1.25, 1.45
-22, 8.81, 1.43
-21, 0.13, 1.41
-20, 9.99, 1.41
-19, 0.56, 1.39
-18, 9.37, 1.36
-17, 1.59, 1.36
-16, 9.03, 1.34
-15, 2.95, 1.32
-14, 8.31, 1.30
-13, 3.73, 1.30
-12, 7.24, 1.27
-11, 5.23, 1.25
-10, 5.43, 1.25
-9, 5.88, 1.23
-8, 4.49, 1.23
-7, 8.16, 1.21
-6, 9.59, 1.18
-5, 1.81, 1.16
-4, 10.30, 1.14
-3, 2.17, 1.14
-2, 11.35, 1.12
-1, 2.03, 1.12
0, 11.80, 1.10
-29, 1.70, 1.10
-28, 11.89, 1.07
-27, 2.41, 1.05
-26, 11.51, 1.05
-25, 10.04, 1.03
-24, 3.38, 1.01
-23, 9.41, 1.01
-22, 4.31, 0.98
-21, 7.38, 0.98
-20, 4.11, 0.96
-19, 5.86, 0.96
-18, 5.12, 0.94
-17, 4.40, 0.94
-16, 6.41, 0.92
-15, 3.06, 0.92
-14, 7.85, 0.89
-13, 2.70, 0.89
-12, 9.43, 0.87
-11, 2.10, 0.87
-10, 10.33, 0.85
-9, 1.81, 0.85
-8, 11.00, 0.85
-7, 1.10, 0.83
-6, 10.06, 0.83
-5, 0.29, 0.80
-4, 11.09, 0.80
-3, 2.08, 0.78
-2, 10.97, 0.78
-1, 3.49, 0.78
0, 9.81, 0.76
-29, 3.38, 0.76
-28, 8.83, 0.74
-27, 3.98, 0.74
-26, 7.24, 0.74
-25, 5.86, 0.72
-24, 6.48, 0.72
-23, 7.53, 0.69
-22, 4.65, 0.69
-21, 8.20, 0.69
-20, 3.51, 0.67
-19, 9.01, 0.67
-18, 1.61, 0.67
-17, 8.07, 0.65
-16, -1.14, 0.65
-15, 7.64, 0.65
-14, -1.56, 0.63
-13, 8.94, 0.63
-12, -0.72, 0.63
-11, 9.01, 0.60
-10, -0.94, 0.60
-9, 8.81, 0.60
-8, -0.63, 0.58
-7, 7.04, 0.58
-6, 0.00, 0.58
-5, 5.61, 0.56
-4, 0.49, 0.56
-3, 5.41, 0.56
-2, 2.75, 0.56
-1, 3.93, 0.54
0, 3.44, 0.54
