%OpenBCI Raw EEG Data
%
%Sample Rate = 250.0 Hz
%First Column = SampleIndex
%Other Columns = EEG data in microvolts
-29, 86179.42, 78500.03
-28, 124137.10, 113051.94
-27, 126921.73, 115564.18
-26, 97520.20, 88819.77
-25, 88431.65, 80551.56
-24, 102429.49, 93304.30
-23, 105623.34, 96207.55
-22, 93294.94, 84992.86
-21, 86342.86, 78663.05
-20, 89186.00, 81259.04
-19, 89787.17, 81813.90
-18, 84967.64, 77429.77
-17, 81039.59, 73853.48
-16, 79621.22, 72562.60
-15, 77894.50, 71005.20
-14, 75741.67, 69044.84
-13, 73964.95, 67431.79
-12, 71522.11, 65202.27
-11, 68525.23, 62491.76
-10, 66938.26, 61044.02
-9, 66248.46, 60423.22
-8, 64026.63, 58390.53
-7, 58961.66, 53792.71
-6, 58599.11, 53472.00
-5, 56887.24, 51904.03
-4, 53746.11, 49058.74
-3, 51817.73, 47299.73
-2, 51381.47, 46910.65
-1, 50102.34, 45738.17
0, 47408.74, 43295.46
-29, 45390.02, 41457.56
-28, 44739.05, 40869.60
-27, 43723.98, 39943.59
-26, 41518.16, 37938.37
-25, 39549.30, 36150.79
-24, 38688.94, 35367.41
-23, 36019.99, 32938.22
-22, 33194.28, 30369.74
-21, 32343.73, 29603.47
-20, 30897.24, 28279.76
-19, 29269.03, 26809.04
-18, 28198.38, 25825.87
-17, 27350.48, 25065.31
-16, 26146.93, 23959.41
-15, 24720.15, 22672.18
-14, 23643.79, 21684.30
-13, 22796.27, 20923.18
-12, 21761.48, 19972.60
-11, 20521.25, 18853.76
-10, 19484.68, 17903.68
-9, 18647.16, 17148.44
-8, 16656.27, 15335.37
-7, 14871.66, 13710.85
-6, 13103.73, 12101.84
-5, 12204.19, 11285.98
-4, 11434.70, 10581.96
-3, 9849.76, 9137.86
-2, 9029.03, 8398.06
-1, 8308.52, 7734.62
0, 7602.23, 7099.87
-29, 6874.59, 6429.66
-28, 5464.75, 5146.02
-27, 4812.13, 4562.62
-26, 4164.51, 3962.47
-25, 3493.42, 3361.99
-24, 2880.92, 2795.00
-23, 2282.25, 2259.25
-22, 1698.24, 1719.50
-21, 1098.16, 1180.19
-20, 537.87, 663.38
-19, -5.25, 173.18
-18, -1582.37, -1265.80
-17, -2073.93, -1712.79
-16, -2556.95, -2150.91
-15, -3030.65, -2585.52
-14, -3499.30, -3007.45
-13, -3938.56, -3413.09
-12, -4378.13, -3807.19
-11, -4797.91, -4197.25
-10, -5222.60, -4575.74
-9, -6014.05, -5295.44
-8, -6386.43, -5644.69
-7, -6769.29, -5983.14
-6, -7119.05, -6312.38
-5, -7477.33, -6629.35
-4, -7808.09, -6940.98
-3, -8148.71, -7242.61
-2, -8461.65, -7536.63
-1, -8780.64, -7819.04
0, -9076.62, -8095.89
-29, -9377.83, -8364.20
-28, -9659.37, -8625.05
-27, -9938.57, -8876.52
-26, -10204.00, -9121.21
-25, -10466.07, -9359.10
-24, -10718.06, -9589.23
-23, -10959.46, -9811.45
-22, -11198.31, -10026.28
-21, -11422.72, -10235.80
-20, -11650.09, -10437.26
-19, -11858.43, -10633.37
-18, -12072.80, -10821.33
-17, -12465.59, -11180.48
-16, -12641.14, -11351.47
-15, -12829.81, -11514.10
-14, -12992.35, -11673.53
-13, -13484.72, -12112.95
-12, -13624.35, -12249.92
-11, -13775.80, -12379.60
-10, -13905.04, -12505.78
-9, -14041.36, -12625.49
-8, -14162.44, -12742.01
-7, -14287.17, -12852.05
-6, -14398.88, -12958.00
-5, -14616.43, -13155.86
-4, -14716.01, -13248.21
-3, -14902.11, -13420.12
-2, -14992.63, -13498.66
-1, -15068.18, -13574.46
0, -15151.82, -13645.02
-29, -15217.00, -13713.35
-28, -15294.25, -13775.85
-27, -15420.42, -13892.17
-26, -15530.24, -13993.78
-25, -15569.40, -14040.58
-24, -15625.30, -14082.33
-23, -15657.40, -14122.50
-22, -15705.74, -14157.82
-21, -15732.74, -14191.19
-20, -15771.70, -14220.18
-19, -15794.03, -14247.63
-18, -15825.19, -14271.39
-17, -15843.45, -14293.33
-16, -15879.24, -14327.24
-15, -15892.38, -14340.50
-14, -15904.63, -14350.98
-13, -15910.75, -14359.52
-12, -15920.81, -14364.82
-11, -15918.40, -14368.62
-10, -15924.45, -14368.77
-9, -15914.42, -14368.42
-8, -15902.19, -14359.25
-7, -15902.33, -14350.53
-6, -15881.16, -14341.53
-5, -15876.78, -14328.76
-4, -15850.87, -14316.25
-3, -15842.56, -14299.19
-2, -15811.98, -14282.52
-1, -15799.40, -14262.18
0, -15767.68, -14242.28
-29, -15749.53, -14218.75
-28, -15714.77, -14195.41
-27, -15690.61, -14168.63
-26, -15654.31, -14141.54
-25, -15588.82, -14081.71
-24, -15554.64, -14049.97
-23, -15517.27, -14016.64
-22, -15475.85, -13982.22
-21, -15437.90, -13945.83
-20, -15391.28, -13908.97
-19, -15352.29, -13869.97
-18, -15301.06, -13831.03
-17, -15262.78, -13789.57
-16, -15208.35, -13748.74
-15, -15168.88, -13704.32
-14, -15068.78, -13614.56
-13, -15007.67, -13569.18
-12, -14963.91, -13520.77
-11, -14901.17, -13474.01
-10, -14855.35, -13423.99
-9, -14791.15, -13375.08
-8, -14742.96, -13323.34
-7, -14678.05, -13272.42
-6, -14625.44, -13219.13
-5, -14561.13, -13166.63
-4, -14505.70, -13112.81
-3, -14442.09, -13058.25
-2, -14382.54, -13002.83
-1, -14319.67, -12947.34
0, -14254.71, -12890.43
-29, -14193.78, -12833.27
-28, -14126.84, -12775.88
-27, -14067.18, -12717.36
-26, -13936.74, -12599.12
-25, -13861.25, -12540.06
-24, -13801.96, -12478.73
-23, -13724.71, -12418.78
-22, -13666.28, -12356.38
-21, -13588.50, -12296.14
-20, -13529.55, -12233.04
-19, -13449.67, -12171.57
-18, -13389.25, -12107.63
-17, -13247.45, -11981.05
-16, -13169.53, -11918.46
-15, -13106.61, -11854.13
-14, -13029.88, -11790.63
-13, -12963.92, -11725.75
-12, -12888.15, -11661.62
-11, -12818.72, -11596.37
-10, -12745.32, -11531.62
-9, -12600.06, -11400.62
-8, -12524.80, -11335.44
-7, -12455.15, -11268.81
-6, -12377.34, -11203.74
-5, -12310.65, -11137.47
-4, -12230.40, -11072.40
-3, -12165.25, -11005.77
-2, -12019.00, -10872.69
-1, -11934.98, -10807.40
0, -11871.55, -10740.03
-29, -11787.44, -10674.50
-28, -11724.79, -10607.31
-27, -11641.30, -10541.77
-26, -11576.48, -10474.16
-25, -11493.40, -10409.09
-24, -11346.66, -10276.21
-23, -11278.71, -10209.09
-22, -11200.57, -10143.76
-21, -11130.68, -10077.13
-20, -10836.17, -9813.26
-19, -10765.94, -9747.35
-18, -10689.70, -9682.35
-17, -10621.91, -9615.81
-16, -10543.90, -9551.12
-15, -10479.48, -9485.14
-14, -10399.28, -9420.97
-13, -10335.89, -9354.85
-12, -10254.38, -9290.75
-11, -10192.35, -9224.88
-10, -10111.17, -9161.24
-9, -10050.75, -9095.95
-8, -9969.88, -9033.30
-7, -9908.35, -8968.32
-6, -9828.24, -8905.58
-5, -9765.01, -8840.74
-4, -9687.49, -8778.18
-3, -9623.74, -8714.03
-2, -9548.40, -8651.55
-1, -9483.67, -8588.14
0, -9411.25, -8526.23
-29, -9344.30, -8463.53
-28, -9276.22, -8401.73
-27, -9207.08, -8339.93
-26, -9140.48, -8277.86
-25, -9068.86, -8216.52
-24, -9005.25, -8154.88
-23, -8933.39, -8094.68
-22, -8872.90, -8033.26
-21, -8798.85, -7973.74
-20, -8664.88, -7853.84
-19, -8609.76, -7793.27
-18, -8534.68, -7735.00
-17, -8478.66, -7675.03
-16, -8404.32, -7617.32
-15, -8349.18, -7557.86
-14, -8274.23, -7500.46
-13, -8219.05, -7441.74
-12, -8146.43, -7384.73
-11, -8090.37, -7326.70
-10, -8020.92, -7270.28
-9, -7963.99, -7212.86
-8, -7897.25, -7156.76
-7, -7836.86, -7100.34
-6, -7773.49, -7044.67
-5, -7712.31, -6989.48
-4, -7650.91, -6933.67
-3, -7587.70, -6878.70
-2, -7531.17, -6823.56
-1, -7465.95, -6769.23
0, -7294.47, -6607.35
-29, -7227.57, -6555.34
-28, -7177.77, -6501.29
-27, -7110.11, -6449.71
-26, -7062.26, -6396.46
-25, -6995.20, -6345.68
-24, -6948.82, -6293.02
-23, -6882.17, -6242.48
-22, -6835.77, -6190.47
-21, -6770.52, -6140.14
-20, -6722.60, -6088.82
-19, -6660.66, -6039.71
-18, -6612.32, -5989.33
-17, -6552.82, -5940.20
-16, -6502.95, -5890.58
-15, -6446.53, -5842.10
-14, -6393.47, -5793.01
-13, -6341.17, -5744.96
-12, -6286.09, -5696.92
-11, -6235.89, -5648.53
-10, -6180.61, -5601.91
-9, -6133.77, -5554.03
-8, -6075.61, -5508.16
-7, -6031.28, -5460.60
-6, -5970.89, -5415.00
-5, -5928.53, -5367.99
-4, -5868.92, -5323.38
-3, -5829.16, -5277.18
-2, -5769.77, -5233.15
-1, -5729.62, -5187.17
0, -5670.46, -5143.90
-29, -5630.74, -5098.54
-28, -5574.19, -5055.96
-27, -5535.16, -5011.69
-26, -5479.26, -4968.99
-25, -5386.14, -4883.21
-24, -5295.87, -4798.65
-23, -5205.65, -4715.95
-22, -5159.97, -4674.69
-21, -5116.54, -4633.74
-20, -5069.04, -4593.75
-19, -5028.83, -4553.16
-18, -4978.07, -4513.80
-17, -4889.87, -4434.79
-16, -4855.25, -4394.53
-15, -4803.23, -4356.85
-14, -4771.58, -4317.44
-13, -4719.28, -4280.14
-12, -4686.94, -4240.91
-11, -4635.95, -4204.36
-10, -4604.08, -4165.87
-9, -4553.27, -4129.46
-8, -4520.48, -4091.46
-7, -4471.22, -4055.88
-6, -4437.71, -4018.57
-5, -4391.22, -3983.17
-4, -4357.45, -3947.03
-3, -4314.74, -3912.25
-2, -4278.26, -3876.60
-1, -4238.14, -3841.93
0, -4200.61, -3807.33
-29, -4163.41, -3772.91
-28, -4123.83, -3739.09
-27, -4089.97, -3704.80
-26, -4048.28, -3671.45
-25, -4017.17, -3637.43
-24, -3974.09, -3605.02
-23, -3945.53, -3571.50
-22, -3901.00, -3539.98
-21, -3873.45, -3506.23
-20, -3802.90, -3442.01
-19, -3757.93, -3411.46
-18, -3733.93, -3379.27
-17, -3690.34, -3349.41
-16, -3665.64, -3317.67
-15, -3622.68, -3288.01
-14, -3595.79, -3256.65
-13, -3554.91, -3227.37
-12, -3527.51, -3196.81
-11, -3489.55, -3167.69
-10, -3461.01, -3137.96
-9, -3426.54, -3109.35
-8, -3363.89, -3051.62
-7, -3330.43, -3023.18
-6, -3301.13, -2994.28
-5, -3265.63, -2966.70
-4, -3240.00, -2938.36
-3, -3203.09, -2911.36
-2, -3180.88, -2883.53
-1, -3142.05, -2857.58
0, -3121.40, -2829.71
-29, -3082.80, -2804.14
-28, -3064.65, -2776.82
-27, -3026.81, -2751.79
-26, -3008.59, -2724.83
-25, -2969.61, -2700.25
-24, -2950.81, -2674.05
-23, -2894.10, -2623.40
-22, -2859.48, -2599.62
-21, -2839.23, -2573.80
-20, -2784.94, -2525.32
-19, -2755.46, -2501.38
-18, -2730.51, -2477.02
-17, -2703.91, -2453.82
-16, -2677.02, -2430.33
-15, -2652.73, -2406.59
-14, -2624.25, -2383.99
-13, -2603.22, -2360.66
-12, -2571.86, -2338.60
-11, -2554.74, -2315.82
-10, -2522.89, -2294.65
-9, -2505.83, -2271.50
-8, -2459.00, -2228.09
-7, -2426.35, -2207.93
-6, -2412.89, -2185.49
-5, -2379.79, -2165.46
-4, -2365.95, -2143.38
-3, -2333.37, -2123.68
-2, -2318.39, -2102.16
-1, -2287.61, -2082.56
0, -2272.46, -2061.30
-29, -2243.40, -2042.08
-28, -2226.88, -2021.56
-27, -2201.18, -2002.65
-26, -2182.36, -1983.18
-25, -2159.65, -1963.96
-24, -2139.13, -1944.98
-23, -2119.35, -1925.76
-22, -2095.95, -1907.03
-21, -2078.85, -1887.90
-20, -2053.70, -1869.79
-19, -2039.86, -1851.28
-18, -2000.99, -1815.12
-17, -1961.88, -1779.40
-16, -1933.65, -1763.24
-15, -1925.04, -1744.96
-14, -1896.34, -1729.15
-13, -1887.69, -1710.98
-12, -1858.88, -1694.89
-11, -1850.41, -1677.52
-10, -1823.61, -1662.25
-9, -1813.20, -1645.04
-8, -1787.45, -1629.60
-7, -1775.67, -1612.79
-6, -1752.00, -1596.94
-5, -1738.88, -1581.05
-4, -1719.18, -1565.61
-3, -1703.02, -1550.07
-2, -1685.14, -1534.58
-1, -1652.46, -1504.29
0, -1632.75, -1490.21
-29, -1621.28, -1474.88
-28, -1599.83, -1461.02
-27, -1590.62, -1445.91
-26, -1566.57, -1432.39
-25, -1559.39, -1417.37
-24, -1533.82, -1403.98
-23, -1528.79, -1388.78
-22, -1503.15, -1375.93
-21, -1498.15, -1361.09
-20, -1472.94, -1348.46
-19, -1467.97, -1334.15
-18, -1443.10, -1321.41
-17, -1437.64, -1307.13
-16, -1416.43, -1295.06
-15, -1388.36, -1269.24
-14, -1378.54, -1255.70
-13, -1361.80, -1243.54
-12, -1349.78, -1230.53
-11, -1335.11, -1218.19
-10, -1321.30, -1206.03
-9, -1308.87, -1193.52
-8, -1292.04, -1181.51
-7, -1283.39, -1169.29
-6, -1264.13, -1157.78
-5, -1258.05, -1145.39
-4, -1237.62, -1134.33
-3, -1233.44, -1121.90
-2, -1213.14, -1111.40
-1, -1188.13, -1089.07
0, -1184.82, -1076.66
-29, -1161.73, -1066.49
-28, -1159.27, -1054.60
-27, -1138.89, -1045.15
-26, -1136.81, -1033.92
-25, -1116.63, -1024.43
-24, -1111.57, -1012.98
-23, -1093.02, -1003.03
-22, -1087.21, -991.88
-21, -1072.28, -982.27
-20, -1065.60, -972.23
-19, -1053.82, -962.82
-18, -1043.36, -952.97
-17, -1033.63, -943.27
-16, -1020.83, -933.52
-15, -1014.03, -923.80
-14, -999.06, -914.79
-13, -994.12, -904.66
-12, -977.89, -896.46
-11, -974.63, -886.20
-10, -956.41, -878.11
-9, -955.60, -868.25
-8, -935.89, -860.27
-7, -935.64, -850.66
-6, -915.80, -842.95
-5, -916.38, -833.34
-4, -897.04, -825.94
-3, -896.71, -816.29
-2, -878.31, -808.64
-1, -877.51, -799.52
0, -861.26, -792.32
-29, -859.45, -783.59
-28, -845.41, -775.99
-27, -840.76, -767.60
-26, -829.09, -760.05
-25, -822.32, -752.05
-24, -814.54, -744.45
-23, -805.18, -737.05
-22, -799.19, -729.20
-21, -786.11, -721.72
-20, -782.49, -713.96
-19, -768.52, -707.03
-18, -766.98, -698.83
-17, -752.94, -684.05
-16, -735.26, -677.91
-15, -737.52, -669.57
-14, -720.62, -663.87
-13, -722.14, -655.71
-12, -704.15, -649.79
-11, -688.59, -635.71
-10, -689.64, -628.24
-9, -675.87, -623.10
-8, -675.76, -616.15
-7, -662.98, -610.56
-6, -660.27, -603.59
-5, -650.26, -597.73
-4, -645.09, -591.16
-3, -637.92, -585.37
-2, -630.65, -578.95
-1, -625.11, -572.52
0, -615.52, -566.55
-29, -601.46, -554.75
-28, -590.40, -536.89
-27, -575.94, -532.51
-26, -578.28, -525.91
-25, -562.71, -521.35
-24, -566.24, -515.01
-23, -549.99, -510.67
-22, -553.67, -503.96
-21, -539.28, -499.83
-20, -542.23, -493.37
-19, -528.19, -488.83
-18, -530.34, -482.82
-17, -517.71, -478.19
-16, -517.78, -472.36
-15, -508.93, -468.13
-14, -505.95, -462.66
-13, -489.30, -448.22
-12, -481.34, -443.70
-11, -469.99, -434.54
-10, -469.95, -429.18
-9, -458.34, -425.35
-8, -461.54, -420.24
-7, -448.33, -416.70
-6, -452.22, -411.23
-5, -438.09, -407.83
-4, -443.53, -402.13
-3, -429.20, -399.11
-2, -434.61, -394.17
-1, -419.61, -390.78
0, -423.59, -385.75
-29, -409.82, -382.26
-28, -412.39, -376.78
-27, -400.41, -373.61
-26, -402.76, -368.83
-25, -387.36, -357.87
-24, -384.94, -353.72
-23, -381.45, -349.85
-22, -375.96, -346.27
-21, -373.68, -342.00
-20, -366.73, -338.85
-19, -366.88, -335.01
-18, -355.84, -331.81
-17, -358.66, -327.83
-16, -346.61, -325.08
-15, -351.06, -320.52
-14, -338.85, -318.18
-13, -344.60, -313.46
-12, -331.25, -311.40
-11, -323.09, -304.65
-10, -315.99, -298.69
-9, -321.37, -294.82
-8, -309.77, -292.56
-7, -313.30, -288.72
-6, -303.60, -286.24
-5, -305.46, -282.75
-4, -298.89, -280.47
-3, -299.27, -277.27
-2, -294.77, -274.90
-1, -290.44, -271.71
0, -288.20, -268.49
-29, -282.35, -265.67
-28, -282.84, -262.41
-27, -274.64, -260.04
-26, -277.45, -256.44
-25, -266.97, -254.72
-24, -272.27, -251.28
-23, -260.73, -249.58
-22, -267.98, -246.07
-21, -255.15, -244.28
-20, -261.90, -240.64
-19, -248.60, -239.03
-18, -255.64, -235.41
-17, -243.68, -234.16
-16, -250.83, -230.58
-15, -239.01, -229.24
-14, -244.44, -226.02
-13, -235.41, -224.28
-12, -238.65, -221.48
-11, -231.63, -219.54
-10, -232.79, -216.48
-9, -228.46, -214.82
-8, -226.11, -212.01
-7, -224.05, -209.93
-6, -219.85, -207.94
-5, -214.08, -204.03
-4, -217.08, -201.14
-3, -208.85, -199.69
-2, -212.74, -196.36
-1, -202.84, -195.26
0, -209.97, -192.34
-29, -197.79, -190.95
-28, -193.19, -187.06
-27, -200.07, -183.78
-26, -188.18, -183.08
-25, -195.26, -180.40
-24, -183.22, -179.40
-23, -189.21, -176.78
-22, -180.13, -175.73
-21, -184.13, -172.91
-20, -176.27, -171.55
-19, -178.03, -169.29
-18, -172.78, -167.84
-17, -173.32, -166.34
-16, -171.42, -164.51
-15, -168.82, -162.68
-14, -168.51, -160.71
-13, -166.88, -157.29
-12, -159.59, -155.88
-11, -165.25, -153.76
-10, -155.34, -152.91
-9, -161.94, -150.02
-8, -150.36, -149.42
-7, -157.96, -146.58
-6, -154.43, -143.48
-5, -143.92, -143.32
-4, -141.20, -140.19
-3, -148.53, -137.64
-2, -143.83, -133.98
-1, -135.34, -133.40
0, -138.31, -131.43
-29, -132.72, -131.18
-28, -133.73, -129.57
-27, -130.58, -128.25
-26, -127.63, -124.95
-25, -124.61, -124.39
-24, -126.94, -122.64
-23, -120.30, -121.86
-22, -124.50, -119.31
-21, -116.23, -118.93
-20, -122.55, -116.79
-19, -112.88, -116.61
-18, -120.83, -114.31
-17, -109.14, -113.82
-16, -117.37, -111.18
-15, -105.32, -110.84
-14, -113.97, -108.58
-13, -103.13, -108.45
-12, -110.64, -106.19
-11, -101.43, -106.15
-10, -108.36, -104.18
-9, -99.40, -103.51
-8, -103.62, -101.86
-7, -97.01, -101.19
-6, -99.20, -99.64
-5, -96.20, -98.62
-4, -96.69, -97.54
-3, -95.96, -96.54
-2, -93.54, -95.58
-1, -94.73, -94.23
0, -88.98, -93.52
-29, -92.42, -91.73
-28, -84.56, -91.35
-27, -91.02, -89.97
-26, -82.12, -90.12
-25, -89.74, -88.29
-24, -79.13, -88.36
-23, -88.58, -86.59
-22, -76.96, -86.34
-21, -86.52, -84.42
-20, -75.75, -84.44
-19, -84.18, -82.72
-18, -73.51, -83.04
-17, -80.71, -81.43
-16, -71.50, -81.27
-15, -77.94, -79.33
-14, -71.57, -78.97
-13, -75.44, -77.40
-12, -71.19, -76.89
-11, -71.26, -75.91
-10, -70.07, -75.28
-9, -67.86, -74.52
-8, -68.49, -73.51
-7, -64.08, -72.89
-6, -67.35, -71.03
-5, -60.37, -70.94
-4, -65.62, -68.46
-3, -56.51, -69.02
-2, -65.76, -67.32
-1, -55.45, -67.86
0, -64.57, -65.96
-29, -54.67, -66.45
-28, -63.26, -64.57
-27, -52.21, -64.69
-26, -60.37, -63.37
-25, -51.19, -63.52
-24, -58.43, -62.05
-23, -51.81, -62.45
-22, -56.62, -61.11
-21, -50.94, -60.64
-20, -52.95, -59.77
-19, -50.36, -58.94
-18, -51.36, -58.54
-17, -52.59, -57.94
-16, -49.73, -57.62
-15, -52.26, -56.66
-14, -47.45, -56.53
-13, -51.77, -55.32
-12, -44.52, -55.37
-11, -52.03, -54.09
-10, -50.63, -52.62
-9, -41.24, -53.47
-8, -49.04, -51.54
-7, -38.00, -52.06
-6, -47.14, -50.20
-5, -37.60, -50.74
-4, -46.29, -49.29
-3, -37.28, -49.78
-2, -44.66, -48.68
-1, -36.79, -48.86
0, -42.40, -47.56
-29, -37.17, -47.30
-28, -41.24, -46.76
-27, -38.00, -46.27
-26, -38.31, -45.53
-25, -38.62, -45.42
-24, -36.66, -44.82
-23, -35.23, -43.88
-22, -39.81, -42.87
-21, -32.86, -42.98
-20, -39.56, -41.60
-19, -30.85, -42.11
-18, -38.36, -40.66
-17, -28.65, -41.19
-16, -37.10, -39.47
-15, -27.56, -40.46
-14, -37.13, -39.14
-13, -26.35, -39.63
-12, -36.28, -38.65
-11, -26.62, -38.91
-10, -34.40, -37.33
-9, -27.36, -37.73
-8, -33.62, -36.52
-7, -27.20, -36.72
-6, -31.16, -35.63
-5, -28.70, -34.71
-4, -27.05, -34.11
-3, -28.68, -33.46
-2, -25.93, -33.35
-1, -29.75, -32.75
0, -31.38, -31.99
-29, -22.55, -32.12
-28, -29.95, -30.96
-27, -21.50, -31.58
-26, -19.76, -30.73
-25, -30.02, -29.19
-24, -19.62, -29.73
-23, -29.37, -28.03
-22, -19.38, -28.92
-21, -28.14, -27.89
-20, -19.09, -28.54
-19, -25.57, -27.43
-18, -19.47, -28.25
-17, -23.72, -27.40
-16, -19.09, -27.76
-15, -21.88, -27.38
-14, -19.83, -27.45
-13, -20.07, -26.62
-12, -21.50, -26.40
-11, -18.84, -26.26
-10, -22.46, -25.62
-9, -17.28, -25.88
-8, -21.93, -25.17
-7, -14.42, -25.66
-6, -21.52, -24.54
-5, -12.90, -25.46
-4, -21.39, -24.14
-3, -12.32, -24.97
-2, -20.79, -23.47
-1, -10.35, -24.16
0, -20.74, -23.07
-29, -11.29, -23.72
-28, -20.32, -22.71
-27, -10.59, -23.22
-26, -17.57, -21.84
-25, -9.14, -22.04
-24, -15.53, -21.28
-23, -10.64, -21.70
-22, -15.09, -21.01
-21, -12.14, -21.14
-20, -12.00, -20.12
-19, -9.97, -19.58
-18, -12.05, -19.00
-17, -8.45, -19.18
-16, -12.74, -18.35
-15, -6.95, -19.11
-14, -14.10, -18.13
-13, -5.28, -18.75
-12, -12.96, -17.52
-11, -13.43, -17.23
-10, -3.44, -18.13
-9, -13.86, -16.90
-8, -3.26, -17.72
-7, -13.14, -16.58
-6, -3.51, -17.26
-5, -11.73, -15.69
-4, -4.11, -16.47
-3, -10.51, -15.51
-2, -3.38, -15.71
-1, -3.89, -15.83
0, -5.59, -15.33
-29, -4.87, -15.33
-28, -5.28, -15.31
-27, -7.29, -14.80
-26, -3.69, -14.80
-25, -8.61, -14.57
-24, -2.79, -15.11
-23, -9.61, -14.71
-22, -1.14, -15.00
-21, -8.76, -14.15
-20, 0.29, -15.13
-19, -8.36, -13.77
-18, 0.36, -14.98
-17, -9.45, -13.84
-16, 1.25, -14.55
-15, -8.20, -13.52
-14, 1.52, -14.46
-13, -8.00, -13.63
-12, -7.55, -13.63
-11, -0.34, -14.08
-10, -5.50, -13.17
-9, -0.78, -13.55
-8, -1.18, -13.46
-7, -1.59, -13.48
-6, -4.31, -13.10
-5, -0.31, -13.61
-4, -4.85, -12.63
-3, 1.86, -13.41
-2, -6.48, -12.45
-1, 2.32, -13.37
0, -6.46, -12.14
-29, 3.71, -13.08
-28, -5.68, -11.71
-27, 4.92, -13.23
-26, -4.22, -12.00
-25, -4.47, -12.11
-24, 4.83, -12.81
-23, -3.40, -11.56
-22, 3.15, -12.29
-21, -2.19, -11.29
-20, 3.46, -11.65
-19, -1.34, -11.31
-18, 2.37, -11.82
-17, 1.61, -11.29
-16, 1.86, -11.47
-15, 3.38, -11.31
-14, 1.10, -10.80
-13, 5.57, -11.11
-12, 0.58, -10.71
-11, 5.92, -11.27
-10, -0.18, -10.28
-9, 6.79, -11.40
-8, -2.19, -10.42
-7, 7.24, -11.24
-6, -2.24, -10.04
-5, 7.96, -10.91
-4, -1.99, -9.63
-3, 8.54, -10.66
-2, -2.21, -9.59
-1, 6.82, -10.35
0, -0.85, -9.14
-29, 7.17, -10.04
-28, 0.94, -9.19
-27, 6.01, -10.08
-26, 1.25, -9.30
-25, 4.34, -9.61
-24, 3.87, -9.68
-23, 4.56, -9.54
-22, 3.26, -9.28
-21, 5.32, -9.37
-20, 1.48, -8.63
-19, 7.20, -8.74
-18, 0.47, -8.23
-17, 7.22, -9.03
-16, -0.80, -8.07
-15, 7.96, -8.87
-14, -2.44, -7.76
-13, 8.18, -8.56
-12, -2.57, -7.22
-11, 7.44, -8.00
-10, -2.46, -7.20
-9, 7.40, -8.20
-8, -2.46, -7.11
-7, 6.28, -8.00
-6, -1.72, -7.06
-5, 5.30, -7.58
-4, 0.74, -6.59
-3, 4.69, -7.51
-2, 1.59, -7.26
-1, 4.36, -7.04
0, 3.64, -6.95
-29, 4.52, -6.59
-28, 2.68, -6.59
-27, 7.38, -7.31
-26, 2.32, -6.26
-25, 9.39, -6.68
-24, 2.93, -5.83
-23, 11.62, -6.59
-22, 1.32, -5.88
-21, 10.77, -6.82
-20, 0.34, -5.77
-19, 10.66, -6.75
-18, 0.92, -5.83
-17, 10.95, -7.33
-16, 1.59, -6.30
-15, 11.60, -7.02
-14, 3.17, -6.08
-13, 11.69, -6.88
-12, 5.83, -5.97
-11, 11.35, -6.64
-10, 6.84, -6.21
-9, 6.82, -6.44
-8, 6.64, -6.71
-7, 7.13, -6.79
-6, 5.36, -5.95
-5, 8.45, -6.21
-4, 3.35, -5.45
-3, 9.39, -6.28
-2, 2.26, -5.45
-1, 1.34, -5.43
0, 10.10, -6.30
-29, 0.25, -5.14
-28, 9.57, -6.06
-27, -0.94, -4.72
-26, 8.92, -5.68
-25, -0.92, -4.45
-24, 8.23, -5.54
-23, 0.29, -4.18
-22, 8.36, -5.19
-21, 1.16, -4.45
-20, 7.51, -5.12
-19, 2.30, -4.65
-18, 4.87, -5.59
-17, 2.24, -5.16
-16, 3.84, -5.57
-15, 3.49, -5.59
-14, 2.68, -5.28
-13, 4.90, -5.57
-12, 0.69, -5.03
-11, 5.50, -5.74
-10, -0.11, -5.19
-9, 7.09, -6.03
-8, 8.49, -5.81
-7, -1.14, -4.49
-6, 8.16, -5.92
-5, -1.32, -4.22
-4, 7.26, -5.52
-3, -2.37, -4.00
-2, 7.53, -4.96
-1, -1.32, -4.20
0, 6.97, -5.39
-29, -0.89, -4.56
-28, 5.14, -5.54
-27, -0.07, -4.63
-26, 4.67, -5.25
-25, 1.61, -4.96
-24, 2.97, -5.34
-23, 2.84, -5.19
-22, 1.94, -5.23
-21, 3.55, -5.65
-20, 0.83, -5.39
-19, 5.30, -5.83
-18, -0.36, -5.32
-17, 6.01, -5.95
-16, -1.21, -5.05
-15, 6.97, -6.17
-14, -2.53, -5.14
-13, 7.15, -6.26
-12, -1.94, -5.03
-11, 6.68, -6.35
-10, -2.48, -5.03
-9, 7.93, -5.90
-8, -0.60, -5.03
-7, 6.84, -5.92
-6, 0.04, -4.76
-5, 5.28, -5.50
-4, 1.25, -4.85
-3, 4.25, -4.94
-2, 3.31, -4.76
-1, 4.76, -4.45
0, 1.39, -4.52
-29, 5.41, -4.69
-28, 0.34, -4.22
-27, 6.57, -4.63
-26, 0.02, -3.87
-25, 7.76, -4.96
-24, 0.04, -3.73
-23, 9.03, -4.72
-22, -0.31, -3.78
-21, 8.96, -4.54
-20, -1.07, -3.31
-19, 9.43, -4.14
-18, -0.60, -2.97
-17, -0.92, -3.22
-16, 6.59, -4.14
-15, -0.13, -2.97
-14, 7.47, -3.53
-13, 3.33, -2.68
-12, 8.25, -3.06
-11, 6.19, -2.95
-10, 7.80, -2.95
-9, 7.33, -2.88
-8, 5.99, -2.79
-7, 9.01, -2.55
-6, 5.16, -2.21
-5, 10.95, -2.75
-4, 5.01, -2.30
-3, 11.27, -3.29
-2, 3.20, -2.28
-1, 10.93, -3.24
0, 1.83, -1.88
-29, 11.53, -3.02
-28, 1.45, -2.01
-27, 10.55, -3.31
-26, 0.67, -2.24
-25, 10.66, -3.24
-24, 1.54, -2.30
-23, 11.24, -3.02
-22, 4.34, -1.97
-21, 10.84, -3.08
-20, 5.65, -2.24
-19, 11.20, -2.82
-18, 7.82, -2.46
-17, 9.86, -2.86
-16, 9.19, -2.50
-15, 8.61, -2.30
-14, 10.73, -2.39
-13, 7.82, -2.08
-12, 12.11, -2.57
-11, 12.65, -2.50
-10, 4.36, -1.92
-9, 12.58, -3.08
-8, 3.24, -2.30
-7, 11.53, -3.60
-6, 2.08, -2.32
-5, 12.41, -3.11
-4, 3.11, -1.92
-3, 12.65, -2.75
-2, 4.25, -1.94
-1, 12.29, -2.84
0, 6.66, -2.17
-29, 12.00, -2.82
-28, 7.42, -2.62
-27, 10.68, -2.91
-26, 8.74, -2.84
-25, 9.92, -2.73
-24, 12.87, -2.62
-23, 8.34, -2.21
-22, 13.39, -2.84
-21, 6.48, -2.24
-20, 14.66, -3.33
-19, 5.81, -2.53
-18, 16.14, -3.40
-17, 6.57, -2.12
-16, 15.71, -3.26
-15, 6.30, -2.35
-14, 16.29, -3.40
-13, 6.88, -2.26
-12, 15.60, -3.22
-11, 6.50, -2.21
-10, 15.09, -3.06
-9, 8.23, -2.19
-8, 13.99, -3.17
-7, 9.43, -2.41
-6, 12.16, -3.15
-5, 11.38, -2.79
-4, 10.75, -2.44
-3, 8.76, -2.35
-2, 11.09, -2.91
-1, 7.55, -2.68
0, 12.67, -3.17
-29, 6.17, -2.75
-28, 5.32, -2.97
-27, 14.62, -4.27
-26, 5.63, -3.22
-25, 15.69, -4.02
-24, 4.78, -3.24
-23, 14.60, -4.45
-22, 5.25, -3.35
-21, 15.56, -4.22
-20, 5.86, -3.11
-19, 13.88, -3.91
-18, 6.26, -3.06
-17, 13.63, -3.46
-16, 7.89, -2.91
-15, 11.94, -3.13
-14, 8.47, -2.91
-13, 10.30, -3.38
-12, 8.85, -2.86
-11, 8.99, -2.64
-10, 10.19, -3.04
-9, 7.22, -2.75
-8, 10.57, -3.69
-7, 5.88, -3.00
-6, 12.85, -3.46
-5, 4.83, -2.66
-4, 12.85, -3.49
-3, 3.93, -2.66
-2, 3.06, -2.35
-1, 13.10, -3.64
0, 2.35, -2.84
-29, 11.38, -4.09
-28, 1.25, -3.29
-27, 9.61, -4.05
-26, 1.86, -2.84
-25, 3.04, -2.70
-24, 8.69, -3.55
-23, 4.58, -3.11
-22, 8.67, -3.15
-21, 6.91, -3.44
-20, 7.17, -3.62
-19, 8.38, -3.58
-18, 5.52, -3.62
-17, 4.16, -3.13
-16, 10.33, -3.87
-15, 4.05, -2.84
-14, 11.85, -3.60
-13, 2.97, -2.75
-12, 12.90, -3.35
-11, 3.51, -2.53
-10, 12.83, -3.53
-9, 12.11, -2.88
-8, 1.68, -1.74
-7, 10.39, -2.86
-6, 1.77, -1.81
-5, 10.84, -2.41
-4, 2.88, -1.50
-3, 8.87, -2.48
-2, 4.49, -1.86
-1, 7.64, -2.84
0, 4.63, -2.48
-29, 5.28, -2.79
-28, 5.12, -2.53
-27, 4.72, -2.01
-26, 7.15, -2.08
-25, 4.43, -1.86
-24, 10.04, -2.26
-23, 3.35, -1.70
-22, 10.75, -2.64
-21, 2.37, -1.65
-20, 2.66, -1.34
-19, 12.11, -2.84
-18, 13.08, -2.59
-17, 2.84, -1.30
-16, 12.83, -2.21
-15, 3.80, -0.80
-14, 12.18, -1.90
-13, 4.25, -1.23
-12, 12.41, -1.81
-11, 6.28, -1.07
-10, 10.19, -1.83
-9, 6.62, -1.34
-8, 9.34, -1.54
-7, 8.25, -1.25
-6, 8.87, -1.14
-5, 8.18, -1.23
-4, 11.56, -2.17
-3, 6.28, -1.79
-2, 12.72, -2.30
-1, 14.64, -2.55
0, 5.52, -1.79
-29, 15.38, -2.75
-28, 5.30, -1.59
-27, 14.64, -2.91
-26, 4.34, -1.72
-25, 14.55, -2.86
-24, 5.54, -1.72
-23, 14.04, -2.64
-22, 7.15, -1.14
-21, 14.98, -2.32
-20, 7.44, -2.06
-19, 12.92, -2.88
-18, 7.98, -2.39
-17, 11.00, -2.75
-16, 9.95, -2.41
-15, 11.15, -2.37
-14, 11.56, -2.30
-13, 9.99, -2.03
-12, 12.94, -2.55
-11, 8.20, -2.19
-10, 14.08, -3.04
-9, 7.51, -1.90
-8, 14.82, -2.70
-7, 6.44, -1.63
-6, 16.38, -2.68
-5, 6.41, -1.92
-4, 15.76, -3.04
-3, 6.24, -1.50
-2, 16.56, -2.39
-1, 6.79, -1.48
0, 16.56, -2.59
-29, 8.11, -1.72
-28, 15.96, -2.73
-27, 8.52, -1.97
-26, 14.24, -2.73
-25, 9.21, -2.03
-24, 12.47, -2.59
-23, 9.16, -2.37
-22, 11.27, -2.26
-21, 10.37, -2.44
-20, 10.10, -2.30
-19, 12.70, -2.70
-18, 8.25, -2.59
-17, 12.49, -3.11
-16, 6.10, -2.44
-15, 13.25, -3.08
-14, 6.73, -1.90
-13, 16.25, -2.59
-12, 6.79, -1.97
-11, 15.80, -2.88
-10, 5.70, -1.81
-9, 15.40, -2.68
-8, 5.70, -1.23
-7, 16.09, -1.92
-6, 6.50, -0.94
-5, 14.84, -2.08
-4, 6.88, -1.30
-3, 14.04, -2.26
-2, 7.33, -1.16
-1, 12.67, -1.65
0, 11.18, -1.34
-29, 10.39, -1.12
-28, 11.27, -1.32
-27, 8.56, -1.10
-26, 12.54, -1.52
-25, 7.55, -0.98
-24, 14.06, -1.63
-23, 7.29, -0.72
-22, 15.49, -1.59
-21, 6.17, -0.98
-20, 15.80, -1.59
-19, 6.10, -0.34
-18, 15.58, -1.48
-17, 14.95, -1.18
-16, 5.59, -0.09
-15, 15.33, -1.32
-14, 6.35, -0.07
-13, 13.99, -1.07
-12, 7.80, -0.04
-11, 13.52, -0.80
-10, 8.81, -0.47
-9, 12.61, -1.05
-8, 9.32, -0.96
-7, 9.72, -0.85
-6, 9.88, -0.80
-5, 8.36, -0.36
-4, 11.06, -1.14
-3, 7.49, -0.78
-2, 12.74, -1.54
-1, 6.50, -0.47
0, 13.75, -1.21
-29, 5.05, -0.45
-28, 4.20, -0.78
-27, 13.79, -1.90
-26, 4.34, -0.80
-25, 13.95, -1.83
-24, 3.55, -0.67
-23, 14.04, -1.70
-22, 5.41, -0.63
-21, 13.46, -1.61
-20, 5.83, -0.67
-19, 12.16, -1.30
-18, 6.86, -0.34
-17, 11.91, -0.98
-16, 9.72, -0.76
-15, 11.53, -1.23
-14, 11.33, -1.12
-13, 9.79, -1.03
-12, 12.25, -1.25
-11, 9.25, -0.69
-10, 12.83, -1.48
-9, 6.68, -0.85
-8, 13.70, -1.39
-7, 5.88, -0.67
-6, 14.24, -1.63
-5, 6.28, -0.38
-4, 16.09, -1.50
-3, 6.46, -0.09
-2, 16.38, -0.89
-1, 5.90, -0.02
0, 15.53, -1.10
-29, 5.21, -0.16
-28, 14.13, -1.14
-27, 6.91, 0.07
-26, 13.75, -0.69
-25, 8.85, 0.11
-24, 13.63, -0.67
-23, 9.75, -0.40
-22, 12.23, -0.54
-21, 10.75, -0.16
-20, 10.68, -0.20
-19, 12.63, -0.09
-18, 9.68, -0.36
-17, 14.08, -0.78
-16, 8.31, -0.51
-15, 14.37, -1.10
-14, 7.33, -0.31
-13, 15.91, -1.25
-12, 7.58, -0.29
-11, 16.29, -1.48
-10, 6.84, -0.27
-9, 15.76, -1.81
-8, 6.08, -0.65
-7, 6.50, -0.56
-6, 16.12, -1.23
-5, 7.82, 0.00
-4, 15.33, -0.85
-3, 8.81, 0.09
-2, 14.62, -0.36
-1, 10.28, 0.11
0, 13.55, -0.25
-29, 12.14, 0.00
-28, 12.34, -0.22
-27, 12.83, -0.18
-26, 10.68, -0.22
-25, 13.70, -0.74
-24, 9.14, -0.63
-23, 13.97, -1.34
-22, 7.00, -0.74
-21, 14.31, -1.52
-20, 6.30, -0.58
-19, 16.05, -1.39
-18, 6.88, -0.45
-17, 16.83, -1.63
-16, 6.37, -0.65
-15, 15.36, -2.26
-14, 5.36, -1.36
-13, 14.80, -2.37
-12, 6.33, -1.12
-11, 14.35, -2.17
-10, 6.39, -1.23
-9, 12.65, -2.08
-8, 7.55, -1.30
-7, 11.87, -1.72
-6, 8.16, -1.36
-5, 9.52, -1.48
-4, 7.96, -1.79
-3, 7.42, -1.74
-2, 9.77, -1.81
-1, 7.55, -1.14
0, 11.56, -1.56
-29, 5.81, -0.47
-28, 12.23, -1.34
-27, 3.64, -0.78
-26, 12.52, -1.52
-25, 3.13, -0.87
-24, 13.68, -1.77
-23, 3.91, -0.56
-22, 14.28, -1.86
-21, 3.71, -0.76
-20, 13.39, -1.92
-19, 4.00, -0.80
-18, 12.83, -1.61
-17, 5.28, -0.42
-16, 12.58, -1.25
-15, 7.04, -0.54
-14, 12.11, -1.03
-13, 7.58, -0.98
-12, 10.84, -1.32
-11, 9.75, -0.60
-10, 9.61, -0.89
-9, 10.89, -1.01
-8, 8.54, -0.58
-7, 11.51, -1.07
-6, 6.35, -0.51
-5, 13.23, -0.67
-4, 5.54, -0.04
-3, 13.66, -0.76
-2, 4.49, 0.13
-1, 13.17, -0.94
0, 3.60, 0.13
-29, 13.90, -0.96
-28, 3.00, -0.16
-27, 12.96, -0.89
-26, 12.20, -0.98
-25, 3.22, -0.02
-24, 10.73, -1.18
-23, 3.98, -0.51
-22, 9.12, -1.05
-21, 5.39, 0.18
-20, 8.69, -0.13
-19, 5.23, 0.25
-18, 5.97, 0.11
-17, 4.69, -0.83
-16, 2.55, -1.32
-15, 5.21, -1.72
-14, 1.25, -1.27
-13, 6.55, -1.92
-12, 0.04, -0.96
-11, 7.26, -1.79
-10, -1.86, -1.14
-9, 6.46, -2.17
-8, -3.24, -1.30
-7, 6.26, -2.53
-6, -3.82, -1.59
-5, 5.90, -2.95
-4, -3.78, -1.34
-3, 5.14, -2.50
-2, -3.87, -1.36
-1, -2.86, -1.61
0, 4.85, -2.37
-29, -0.36, -1.54
-28, 4.07, -2.39
-27, 0.00, -1.81
-26, 2.19, -1.97
-25, 1.81, -1.92
-24, 2.03, -1.86
-23, 4.45, -1.97
-22, 0.63, -1.88
-21, 3.24, -2.62
-20, -2.17, -2.32
-19, 4.22, -3.58
-18, -3.13, -2.64
-17, 5.48, -3.53
-16, -3.13, -2.64
-15, 6.53, -3.38
-14, -3.17, -2.37
-13, 6.84, -3.53
-12, -3.06, -2.44
-11, -3.76, -2.53
-10, 5.43, -3.42
-9, -2.19, -2.17
-8, 6.64, -2.75
-7, 0.72, -2.01
-6, 5.36, -3.02
-5, 0.65, -2.62
-4, 3.42, -3.08
-3, 4.43, -2.26
-2, 6.06, -2.24
-1, 3.26, -1.97
0, 7.31, -2.32
-29, 8.27, -1.94
-28, 1.88, -1.14
-27, 9.32, -2.03
-26, 1.59, -0.74
-25, 11.15, -1.72
-24, 2.55, -0.69
-23, 2.32, -1.01
-22, 12.43, -1.99
-21, 2.50, -1.05
-20, 11.87, -2.10
-19, 3.51, -0.94
-18, 10.57, -1.77
-17, 3.91, -0.92
-16, 10.26, -1.68
-15, 5.05, -1.52
-14, 9.37, -1.88
-13, 7.35, -1.39
-12, 9.28, -1.41
-11, 8.87, -1.05
-10, 8.36, -0.87
-9, 6.08, -0.87
-8, 11.31, -1.18
-7, 5.70, -0.47
-6, 13.03, -1.18
-5, 5.86, -0.02
-4, 15.20, -0.98
-3, 5.77, 0.18
-2, 14.80, -1.12
-1, 14.69, -1.74
0, 5.32, -0.65
-29, 15.49, -1.72
-28, 7.15, -0.56
-27, 8.81, -0.94
-26, 16.36, -1.39
-25, 10.48, -0.60
-24, 16.14, -1.05
-23, 12.76, -0.25
-22, 14.42, -0.49
-21, 12.99, -0.47
-20, 13.05, -0.36
-19, 14.95, -0.49
-18, 12.09, -0.31
-17, 17.39, -0.63
-16, 12.00, -0.02
-15, 17.97, -0.83
-14, 10.08, -0.16
-13, 17.39, -1.25
-12, 9.12, -0.07
-11, 18.71, -0.92
-10, 9.39, 0.09
-9, 19.94, -1.10
-8, 20.34, -1.36
-7, 11.33, -0.20
-6, 19.54, -1.25
-5, 11.51, -0.02
-4, 18.95, -1.07
-3, 12.58, -0.18
-2, 18.31, -0.69
-1, 13.72, -0.04
0, 16.58, -0.60
-29, 14.19, -0.49
-28, 14.69, -0.65
-27, 12.83, -0.38
-26, 16.09, -0.83
-25, 11.89, -0.42
-24, 18.57, -0.78
-23, 12.11, -0.29
-22, 19.36, -1.01
-21, 11.87, 0.02
-20, 20.38, -1.07
-19, 11.69, 0.34
-18, 21.57, -0.65
-17, 11.27, 0.36
-16, 21.28, -1.07
-15, 12.16, -0.20
-14, 21.79, -1.18
-13, 13.41, -0.11
-12, 21.44, -0.74
-11, 13.79, 0.11
-10, 20.18, -0.40
-9, 15.13, -0.04
-8, 18.84, -0.34
-7, 16.67, 0.34
-6, 17.68, -0.09
-5, 17.30, 0.22
-4, 16.03, 0.51
-3, 18.31, 0.36
-2, 14.53, 0.74
-1, 20.12, 0.58
0, 13.79, 1.27
-29, 21.14, 0.74
-28, 12.74, 1.25
-27, 20.43, 0.07
-26, 11.04, 0.96
-25, 20.12, -0.07
-24, 10.37, 0.98
-23, 19.98, -0.22
-22, 10.35, 0.67
-21, 18.75, -0.56
-20, 9.14, 0.34
-19, 18.02, -0.09
-18, 10.53, 0.78
-17, 17.70, -0.11
-16, 11.40, 0.25
-15, 14.77, -0.67
-14, 9.99, -0.49
-13, 12.09, -0.60
-12, 11.53, -0.20
-11, 10.64, -0.40
-10, 12.29, -0.58
-9, 9.43, -0.42
-8, 13.23, -0.89
-7, 8.76, -0.56
-6, 15.96, -1.05
-5, 8.11, -0.27
-4, 16.67, -1.27
-3, 7.87, -0.25
-2, 16.45, -1.36
-1, 6.44, -0.22
0, 16.16, -1.36
-29, 6.59, -0.11
-28, 16.58, -1.10
-27, 7.58, 0.04
-26, 16.14, -1.07
-25, 6.55, -0.20
-24, 14.17, -0.96
-23, 6.79, -0.45
-22, 11.76, -1.45
-21, 7.22, -0.80
-20, 10.86, -1.21
-19, 8.90, -0.89
-18, 9.63, -1.10
-17, 11.24, -0.69
-16, 9.43, -0.74
-15, 12.32, -0.98
-14, 8.09, -0.29
-13, 13.72, -0.98
-12, 7.42, -0.42
-11, 16.43, -1.14
-10, 7.62, -0.11
-9, 16.67, -1.27
-8, 7.73, 0.16
-7, 17.55, -0.83
-6, 8.31, 0.16
-5, 18.55, -0.87
-4, 8.65, 0.11
-3, 17.72, -0.98
-2, 8.96, 0.02
-1, 17.23, -0.87
0, 9.14, -0.09
-29, 15.36, -0.92
-28, 9.79, -0.11
-27, 13.90, -0.45
-26, 11.38, -0.16
-25, 13.10, 0.00
-24, 12.81, 0.31
-23, 12.25, 0.47
-22, 14.84, 0.25
-21, 11.18, 0.56
-20, 15.40, -0.22
-19, 8.38, 0.09
-18, 16.05, -0.29
-17, 8.34, 0.56
-16, 17.28, -0.11
-15, 8.76, 1.07
-14, 17.05, -0.13
-13, 6.71, 0.74
-12, 16.99, -0.42
-11, 6.57, 0.47
-10, 16.50, -0.29
-9, 7.82, 0.78
-8, 16.05, -0.20
-7, 7.76, 0.63
-6, 14.55, 0.04
-5, 8.40, 0.36
-4, 12.52, 0.02
-3, 12.25, 0.51
-2, 9.95, 0.67
-1, 10.26, 0.51
0, 12.11, 0.22
-29, 9.88, 0.60
-28, 13.68, 0.34
-27, 8.20, 0.83
-26, 14.53, 0.36
-25, 7.60, 1.12
-24, 15.91, 0.07
-23, 8.20, 1.27
-22, 17.30, 0.36
-21, 6.28, 1.16
-20, 15.67, -0.13
-19, 5.90, 1.30
-18, 15.85, 0.07
-17, 7.00, 1.21
-16, 7.71, 1.61
-15, 14.86, 0.40
-14, 7.96, 1.01
-13, 14.35, 0.47
-12, 9.57, 0.94
-11, 12.52, 0.20
-10, 10.26, 0.67
-9, 10.33, 0.58
-8, 10.84, 0.31
-7, 10.13, 0.65
-6, 12.92, 0.67
-5, 8.40, 0.87
-4, 13.08, 0.27
-3, 6.30, 0.92
-2, 13.66, 0.02
-1, 5.52, 0.89
0, 15.78, 0.09
-29, 5.92, 1.01
-28, 15.56, -0.04
-27, 5.50, 1.14
-26, 5.92, 1.23
-25, 15.65, 0.16
-24, 5.50, 0.96
-23, 13.30, -0.34
-22, 5.86, 0.67
-21, 12.07, -0.07
-20, 7.67, 0.49
-19, 10.93, -0.20
-18, 7.04, 0.02
-17, 8.69, -0.04
-16, 8.94, 0.16
-15, 8.07, 0.38
-14, 10.91, 0.11
-13, 7.91, 0.58
-12, 13.01, -0.34
-11, 7.55, 0.36
-10, 14.64, -0.27
-9, 5.92, 0.18
-8, 14.35, -0.45
-7, 15.18, -0.38
-6, 6.33, 0.74
-5, 16.21, -0.20
-4, 6.06, 0.89
-3, 15.13, 0.00
-2, 6.06, 1.32
-1, 13.32, 0.38
0, 5.65, 1.39
-29, 12.11, 0.51
-28, 6.75, 1.36
-27, 11.02, 0.47
-26, 7.24, 1.07
-25, 9.83, 0.78
-24, 7.93, 0.98
-23, 8.52, 1.34
-22, 10.71, 1.56
-21, 8.14, 1.81
-20, 11.78, 1.10
-19, 7.26, 1.70
-18, 12.47, 0.42
-17, 5.05, 1.32
-16, 13.95, 0.72
-15, 5.32, 1.72
-14, 13.86, 0.65
-13, 4.72, 1.70
-12, 14.31, 0.72
-11, 3.91, 1.68
-10, 13.50, 0.49
-9, 4.22, 1.83
-8, 12.61, 0.72
-7, 4.25, 1.52
-6, 12.81, 0.78
-5, 5.05, 1.48
-4, 10.21, 0.45
-3, 5.30, 1.03
-2, 9.59, 0.80
-1, 6.91, 0.89
0, 7.98, 0.58
-29, 8.38, 0.51
-28, 6.68, 0.51
-27, 10.44, 0.60
-26, 6.41, 1.12
-25, 12.14, 0.83
-24, 5.74, 1.52
-23, 12.36, 0.42
-22, 5.05, 1.32
-21, 13.95, 0.38
-20, 4.11, 0.85
-19, 13.77, -0.40
-18, 3.71, 0.56
-17, 13.23, -0.78
-16, 3.35, 0.38
-15, 13.39, -0.38
-14, 4.34, 0.60
-13, 13.25, -0.16
-12, 5.52, 0.49
-11, 11.40, -0.42
-10, 6.30, 0.56
-9, 10.55, -0.16
-8, 7.93, 0.40
-7, 10.28, 0.36
-6, 9.83, 0.13
-5, 9.32, 0.67
-4, 10.46, 0.60
-3, 7.53, 0.98
-2, 12.65, 0.54
-1, 6.06, 0.78
0, 13.12, 0.18
-29, 6.66, 1.45
-28, 14.84, 0.36
-27, 4.87, 1.34
-26, 14.46, 0.07
-25, 4.25, 0.80
-24, 13.70, -0.16
-23, 4.36, 1.10
-22, 14.13, 0.18
-21, 4.83, 1.10
-20, 13.37, 0.25
-19, 4.69, 0.80
-18, 11.98, 0.00
-17, 5.39, 0.87
-16, 10.21, 0.36
-15, 6.53, 1.05
-14, 10.24, 1.25
-13, 8.45, 1.32
-12, 7.67, 0.80
-11, 8.96, 0.89
-10, 7.11, 1.07
-9, 11.38, 0.78
-8, 6.93, 1.48
-7, 12.20, 0.78
-6, 4.09, 1.32
-5, 10.64, 0.09
-4, 1.90, 1.27
-3, 11.98, 0.63
-2, 2.57, 2.06
-1, 12.32, 1.01
0, 2.93, 2.21
-29, 12.65, 1.01
-28, 2.19, 1.45
-27, 10.86, 0.42
-26, 2.15, 1.50
-25, 10.04, 0.56
-24, 2.59, 1.30
-23, 8.69, 0.76
-22, 2.84, 1.03
-21, 6.39, 0.49
-20, 4.31, 0.78
-19, 6.06, 0.87
-18, 6.79, 0.94
-17, 5.63, 0.94
-16, 9.05, 0.76
-15, 3.93, 0.94
-14, 9.10, 0.63
-13, 2.62, 1.45
-12, 9.32, 0.65
-11, 1.41, 1.59
-10, 11.29, 0.67
-9, 2.10, 1.54
-8, 11.80, 0.49
-7, 1.59, 1.30
-6, 11.56, 0.16
-5, 2.32, 1.36
-4, 12.36, 0.56
-3, 3.53, 1.56
-2, 12.47, 0.69
-1, 3.60, 1.27
0, 10.75, 0.42
-29, 5.10, 1.05
-28, 8.92, 0.40
-27, 6.15, 0.85
-26, 7.82, 0.40
-25, 6.84, 0.27
-24, 6.93, 0.83
-23, 8.09, 0.42
-22, 4.38, 0.76
-21, 8.99, 0.51
-20, 2.37, 0.63
-19, 8.96, 0.09
-18, 1.56, 0.65
-17, 10.17, -0.42
-16, 1.41, 0.65
-15, 10.04, -0.74
-14, -1.07, 0.07
-13, 8.38, -1.01
-12, -1.16, 0.20
-11, 8.61, -0.85
-10, -0.49, 0.07
-9, 8.29, -0.78
-8, -0.40, 0.04
-7, 6.84, -1.01
-6, 1.21, -0.18
-5, 6.30, -1.03
-4, 1.70, -0.69
-3, 4.63, -1.25
-2, 3.02, -0.98
-1, 3.53, -1.07
0, 3.98, -1.21
-29, 1.30, -1.16
-28, 3.98, -1.65
-27, -0.38, -1.16
-26, 5.68, -1.99
-25, -1.12, -1.21
-24, 6.39, -2.55
-23, -2.08, -1.74
-22, 6.12, -3.20
-21, -3.51, -2.17
-20, 6.28, -3.11
-19, -3.22, -1.56
-18, 6.77, -2.86
-17, -3.06, -1.92
-16, 5.39, -3.31
-15, -3.42, -2.53
-14, 3.89, -3.26
-13, -3.44, -1.97
-12, 3.17, -2.62
-11, -1.68, -1.90
-10, 2.88, -2.30
-9, 0.58, -2.12
-8, 1.43, -2.35
-7, 1.99, -2.08
-6, 0.83, -2.01
-5, 3.06, -2.35
-4, -0.38, -1.92
-3, 4.43, -2.88
-2, -2.08, -2.10
-1, 6.03, -2.70
0, -1.41, -1.50
-29, 7.40, -2.28
-28, -3.08, -1.30
-27, 6.17, -2.59
-26, -3.67, -1.34
-25, -2.95, -1.12
-24, 7.58, -1.90
-23, -2.21, -1.21
-22, 6.44, -1.86
-21, -1.59, -0.96
-20, 5.81, -1.32
-19, -0.25, -0.56
-18, 4.11, -1.25
-17, -0.20, -0.98
-16, 1.63, -1.77
-15, 0.20, -1.65
-14, 0.29, -1.36
-13, 1.77, -1.56
-12, -0.40, -0.89
-11, 4.58, -1.18
-10, -0.89, -0.60
-9, 5.63, -1.36
-8, 5.81, -1.30
-7, -3.42, -0.40
-6, 6.08, -1.39
-5, -3.42, -0.27
-4, 6.66, -1.56
-3, 6.41, -1.34
-2, -3.49, -0.42
-1, 5.48, -1.72
0, -2.35, -0.40
-29, 5.92, -1.10
-28, -1.16, -0.45
-27, 4.47, -0.76
-26, -0.72, -0.58
-25, 2.68, -0.74
-24, 1.74, -0.42
-23, 2.70, -0.38
-22, 0.54, -0.31
-21, 3.93, -0.67
-20, -0.47, -0.16
-19, 4.96, -0.94
-18, -1.83, -0.29
-17, 5.14, -1.23
-16, -2.55, 0.04
-15, 6.17, -1.10
-14, -4.09, -0.16
-13, 5.48, -1.07
-12, -4.87, 0.13
-11, 5.59, -0.67
-10, -3.64, 0.63
-9, 6.01, -0.47
-8, -2.93, 0.16
-7, 5.72, -0.60
-6, -1.54, 0.22
-5, 5.41, -0.18
-4, 0.07, 0.02
-3, 4.40, -0.40
-2, 1.74, 0.02
-1, 4.00, -0.16
0, 4.54, -0.02
-29, 2.86, 0.25
-28, 4.90, 0.04
-27, 0.96, 0.47
-26, 4.96, -0.02
-25, -1.18, 0.42
-24, 6.12, 0.00
-23, -2.50, 0.67
-22, 6.44, -0.04
-21, -2.75, 1.21
-20, 7.51, 0.07
-19, -2.17, 1.16
-18, 8.18, 0.29
-17, -1.27, 1.52
-16, 7.00, 0.09
-15, -2.01, 1.03
-14, 7.26, 0.18
-13, -0.94, 0.98
-12, 7.60, 0.18
-11, 1.77, 1.03
-10, 6.24, 0.49
-9, 2.88, 0.94
-8, 5.90, 0.54
-7, 5.01, 1.01
-6, 6.03, 0.67
-5, 3.04, 1.03
-4, 6.79, 0.72
-3, 2.46, 1.25
-2, 9.01, 0.58
-1, 1.94, 1.16
0, 10.10, 0.38
-29, 11.51, 0.29
-28, 1.68, 1.34
-27, 11.96, 0.22
-26, 2.03, 1.45
-25, 12.14, 0.09
-24, 2.82, 1.30
-23, 13.14, 0.47
-22, 3.46, 1.05
-21, 10.53, -0.04
-20, 3.55, 0.89
-19, 9.88, 0.40
-18, 9.05, 0.29
-17, 6.19, 0.40
-16, 6.79, -0.02
-15, 6.50, 0.07
-14, 4.54, 0.45
-13, 8.54, 0.25
-12, 4.47, 0.47
-11, 10.68, 0.09
-10, 4.54, 0.58
-9, 12.32, -0.29
-8, 11.60, -0.51
-7, 2.50, 0.78
-6, 12.49, -0.09
-5, 3.04, 1.07
-4, 3.00, 0.60
-3, 11.71, -0.36
-2, 2.68, 0.51
-1, 11.40, -0.20
0, 3.71, 0.40
-29, 10.86, -0.16
-28, 5.14, 0.42
-27, 8.99, 0.00
-26, 7.71, -0.16
-25, 6.75, -0.49
-24, 6.93, -0.31
-23, 9.25, -0.38
-22, 5.59, 0.09
-21, 10.06, -0.34
-20, 10.48, -0.45
-19, 2.64, 0.47
-18, 10.21, -0.42
-17, 1.68, 0.49
-16, 0.40, 0.29
-15, 9.34, -0.98
-14, 0.20, 0.29
-13, 8.92, -1.05
-12, -0.27, -0.18
-11, 8.87, -1.27
-10, 0.98, -0.09
-9, 8.38, -0.83
-8, 2.73, 0.18
-7, 8.27, -0.40
-6, 3.46, -0.42
-5, 6.59, -0.60
-4, 4.74, -0.47
-3, 5.43, -0.40
-2, 6.06, -0.69
-1, 3.82, -0.47
0, 7.04, -1.74
-29, 2.28, -1.25
-28, 8.00, -2.03
-27, 1.74, -1.34
-26, 9.79, -2.44
-25, 1.45, -1.36
-24, 10.44, -2.53
-23, 0.69, -1.41
-22, 11.02, -2.48
-21, 1.43, -1.16
-20, 11.04, -2.12
-19, 1.25, -1.03
-18, 9.88, -1.97
-17, 0.25, -1.03
-16, 8.99, -1.94
-15, 3.08, -0.87
-14, 8.29, -1.63
-13, 4.02, -0.89
-12, 6.84, -1.27
-11, 4.20, -1.34
-10, 5.74, -1.56
-9, 4.67, -1.59
-8, 8.43, -1.68
-7, 3.96, -1.50
-6, 8.56, -2.01
-5, 1.79, -1.50
-4, 9.23, -2.28
-3, 2.06, -1.05
-2, 11.29, -1.90
-1, 11.82, -1.56
0, 12.03, -1.92
-29, 2.26, -0.85
-28, 11.29, -1.92
-27, 1.77, -0.80
-26, 11.22, -1.45
-25, 3.89, -0.67
-24, 10.66, -1.61
-23, 4.60, -0.98
-22, 5.99, -1.01
-21, 8.43, -0.94
-20, 8.14, -0.74
-19, 6.82, -0.83
-18, 9.66, -0.72
-17, 6.62, -0.22
-16, 11.09, -0.72
-15, 5.59, 0.29
-14, 11.56, -0.56
-13, 2.77, -0.04
-12, 11.09, -1.12
-11, 2.46, -0.18
-10, 11.13, -1.48
-9, 2.01, -0.31
-8, 12.56, -1.36
-7, 2.48, -0.31
-6, 12.61, -1.36
-5, 2.28, -0.45
-4, 1.77, -0.65
-3, 10.28, -0.98
-2, 4.11, -0.07
-1, 8.92, -1.01
0, 4.07, -0.60
-29, 5.99, -1.32
-28, 5.50, -1.10
-27, 6.15, -1.32
-26, 3.87, -1.39
-25, 7.24, -2.01
-24, 2.75, -1.52
-23, 8.78, -2.19
-22, 2.93, -1.36
-21, 10.24, -2.44
-20, 0.72, -1.81
-19, 9.88, -3.11
-18, 0.36, -2.01
-17, 9.75, -3.46
-16, -0.22, -2.03
-15, 9.21, -3.17
-14, -0.63, -2.19
-13, 9.01, -3.26
-12, -0.04, -2.30
-11, 8.58, -3.15
-10, 1.45, -1.90
-9, 6.79, -2.93
-8, 2.37, -2.03
-7, 5.97, -2.66
-6, 3.46, -2.39
-5, 5.28, -2.64
-4, 5.74, -2.88
-3, 4.76, -2.73
-2, 6.84, -3.22
-1, 2.06, -2.95
0, 7.13, -3.35
-29, 0.74, -2.86
-28, 8.02, -3.60
-27, 0.76, -2.41
-26, 9.41, -3.13
-25, 0.45, -1.79
-24, 10.13, -3.00
-23, 0.49, -1.74
-22, 10.75, -2.93
-21, 0.54, -1.97
-20, 9.99, -3.24
-19, 0.80, -2.39
-18, 9.34, -3.53
-17, 7.42, -3.00
-16, 0.74, -2.35
-15, 5.54, -2.84
-14, 2.84, -2.30
-13, 4.98, -2.82
-12, 3.55, -2.82
-11, 2.77, -3.08
-10, 3.80, -3.33
-9, -37.60, -82330.00
-8, -65.62, -77979.10
-7, -36.34, -88235.73
-6, -46.29, -80021.23
-5, -44.90, -95575.31
-4, -53.73, -84433.91
-3, -51.99, -78146.52
-2, -72.20, -81274.60
-1, -70.54, -76919.41
0, -67.32, -73367.72
-29, -70.94, -72084.52
-28, -91.24, -70535.34
-27, -87.10, -68588.60
-26, -85.32, -66986.59
-25, -81.11, -64772.31
-24, -103.98, -62077.47
-23, -99.26, -60639.80
-22, -101.88, -60023.14
-21, -93.77, -58004.60
-20, -116.07, -54992.62
-19, -111.92, -53435.84
-18, -117.37, -53116.61
-17, -106.33, -51560.21
-16, -123.61, -48732.12
-15, -122.42, -46984.79
-14, -127.43, -46597.95
-13, -118.89, -45434.52
-12, -131.12, -43006.74
-11, -133.64, -41180.83
-10, -134.85, -40596.66
-9, -131.92, -39677.23
-8, -136.39, -37684.81
-7, -141.60, -35908.45
-6, -140.15, -35130.41
-5, -142.85, -34328.61
-4, -140.46, -32716.94
-3, -150.58, -31077.44
-2, -145.80, -30165.35
-1, -153.31, -29403.58
0, -146.58, -28089.08
-29, -159.23, -26626.67
-28, -150.90, -25650.90
-27, -161.04, -24894.50
-26, -152.01, -23797.18
-25, -156.17, -21537.00
-24, -165.76, -20779.45
-23, -157.74, -19836.19
-22, -166.99, -18723.94
-21, -161.94, -17780.47
-20, -168.33, -17029.75
-19, -163.23, -16196.34
-18, -168.29, -15228.76
-17, -166.61, -14346.24
-16, -168.67, -13615.16
-15, -169.20, -12863.32
-14, -169.27, -12016.45
-13, -169.18, -10506.82
-12, -174.01, -9819.83
-11, -169.16, -9072.53
-10, -176.15, -8336.57
-9, -168.40, -7678.43
-8, -177.54, -7047.03
-7, -168.73, -6382.27
-6, -178.39, -5718.16
-5, -169.83, -5106.75
-4, -179.62, -4525.89
-3, -169.56, -3930.64
-2, -170.01, -2771.10
-1, -177.72, -2237.86
0, -170.61, -1702.49
-29, -176.78, -1166.02
-28, -171.64, -653.14
-27, -176.31, -165.45
-26, -172.26, 317.13
-25, -175.22, 798.58
-24, -173.76, 1707.61
-23, -174.81, 2142.82
-22, -171.75, 2574.59
-21, -175.30, 2994.11
-20, -170.01, 3396.48
-19, -176.65, 3788.51
-18, -168.78, 4175.28
-17, -176.47, 4552.20
-16, -167.50, 4915.08
-15, -167.41, 5613.26
-14, -176.24, 5950.64
-13, -165.25, 6276.35
-12, -173.58, 6591.93
-11, -163.10, 6900.45
-10, -171.42, 7201.24
-9, -163.50, 7492.17
-8, -169.94, 7773.73
-7, -161.96, 8048.04
-6, -167.26, 8315.14
-5, -161.51, 8573.68
-4, -164.31, 8823.71
-3, -161.04, 9066.56
-2, -161.00, 9302.64
-1, -161.49, 9531.14
0, -158.85, 9751.93
-29, -162.61, 9965.88
-28, -157.51, 10173.42
-27, -162.88, 10374.14
-26, -162.74, 10755.23
-25, -153.67, 10936.51
-24, -161.87, 11111.61
-23, -151.01, 11280.41
-22, -160.11, 11443.22
-21, -149.69, 11600.38
-20, -158.41, 11751.90
-19, -148.24, 11897.68
-18, -156.60, 12037.91
-17, -147.16, 12172.92
-16, -154.00, 12302.71
-15, -146.14, 12427.30
-14, -151.52, 12546.79
-13, -145.55, 12661.41
-12, -148.93, 12771.29
-11, -145.22, 12876.39
-10, -144.79, 13072.80
-9, -142.51, 13164.37
-8, -144.50, 13251.61
-7, -139.83, 13334.58
-6, -143.36, 13413.44
-5, -136.95, 13488.25
-4, -133.86, 13626.07
-3, -131.79, 13748.76
-2, -129.91, 13856.96
-1, -139.77, 13905.82
0, -128.88, 13951.31
-29, -138.38, 13993.51
-28, -129.10, 14032.47
-27, -136.95, 14068.28
-26, -133.57, 14130.70
-25, -130.94, 14181.38
-24, -126.11, 14202.48
-23, -127.07, 14220.85
-22, -125.01, 14236.54
-21, -124.79, 14249.62
-20, -125.19, 14260.14
-19, -121.28, 14268.19
-18, -125.24, 14273.82
-17, -117.91, 14277.09
-16, -123.65, 14278.02
-15, -115.36, 14276.73
-14, -122.98, 14273.24
-13, -112.52, 14267.63
-12, -120.61, 14259.90
-11, -111.07, 14250.17
-10, -120.07, 14238.44
-9, -110.04, 14224.78
-8, -118.55, 14209.25
-7, -108.47, 14191.90
-6, -116.34, 14172.75
-5, -107.91, 14151.87
-4, -115.36, 14129.32
-3, -107.87, 14105.11
-2, -112.74, 14079.29
-1, -107.91, 14051.96
0, -109.79, 14023.08
-29, -107.47, 13992.73
-28, -106.30, 13960.96
-27, -105.75, 13927.82
-26, -103.35, 13893.31
-25, -106.06, 13857.50
-24, -100.65, 13820.42
-23, -105.28, 13782.08
-22, -97.72, 13742.57
-21, -103.65, 13701.89
-20, -103.65, 13617.20
-19, -92.63, 13573.23
-18, -101.66, 13528.26
-17, -90.08, 13482.28
-16, -98.75, 13435.36
-15, -88.04, 13387.51
-14, -96.38, 13338.74
-13, -87.24, 13289.12
-12, -94.21, 13238.65
-11, -86.61, 13187.37
-10, -92.07, 13135.29
-9, -85.67, 13082.50
-8, -89.00, 13028.94
-7, -86.08, 12974.69
-6, -86.90, 12919.78
-5, -85.27, 12864.19
-4, -83.55, 12808.00
-3, -80.96, 12693.82
-2, -78.03, 12577.41
-1, -83.53, 12518.45
0, -75.71, 12458.97
-29, -84.29, 12399.05
-28, -74.61, 12338.68
-27, -84.51, 12277.88
-26, -73.58, 12216.68
-25, -82.95, 12155.08
-24, -72.37, 12093.14
-23, -81.76, 12030.83
-22, -70.25, 11968.20
-21, -78.54, 11905.25
-20, -70.56, 11842.02
-19, -75.59, 11778.50
-18, -68.49, 11714.73
-17, -72.93, 11650.71
-16, -68.24, 11586.47
-15, -69.63, 11522.01
-14, -68.46, 11457.37
-13, -67.48, 11392.53
-12, -67.99, 11327.53
-11, -63.77, 11262.39
-10, -67.26, 11197.11
-9, -61.62, 11131.68
-8, -67.26, 11066.17
-7, -60.31, 11000.54
-6, -67.66, 10934.83
-5, -57.98, 10869.05
-4, -66.34, 10803.20
-3, -55.92, 10737.31
-2, -65.54, 10671.37
-1, -54.49, 10605.41
0, -63.75, 10539.43
-29, -62.38, 10407.49
-28, -53.31, 10341.53
-27, -60.08, 10275.59
-26, -51.10, 10209.69
-25, -56.01, 10143.82
-24, -51.23, 10078.02
-23, -53.53, 10012.28
-22, -50.29, 9946.61
-21, -50.56, 9881.03
-20, -49.80, 9815.52
-19, -48.30, 9750.12
-18, -50.96, 9684.83
-17, -46.98, 9619.63
-16, -51.10, 9554.57
-15, -44.10, 9489.61
-14, -51.21, 9424.79
-13, -42.62, 9360.13
-12, -51.21, 9295.60
-11, -41.17, 9231.22
-10, -50.40, 9167.01
-9, -40.19, 9102.95
-8, -49.37, 9039.07
-7, -38.98, 8975.36
-6, -48.64, 8911.84
-5, -38.74, 8848.52
-4, -46.56, 8785.37
-3, -38.98, 8722.43
-2, -37.44, 8597.15
-1, -41.44, 8534.83
0, -38.20, 8472.72
-29, -39.23, 8410.85
-28, -39.27, 8349.18
-27, -38.15, 8287.76
-26, -40.08, 8226.56
-25, -35.99, 8165.61
-24, -40.41, 8104.88
-23, -34.33, 8044.41
-22, -41.53, 7984.18
-21, -34.00, 7924.21
-20, -41.19, 7864.48
-19, -32.03, 7805.00
-18, -40.50, 7745.82
-17, -30.02, 7686.88
-16, -40.08, 7628.18
-15, -29.12, 7569.77
-14, -37.46, 7511.64
-13, -27.98, 7453.77
-12, -36.72, 7396.17
-11, -28.19, 7338.84
-10, -35.52, 7281.79
-9, -27.76, 7225.04
-8, -32.37, 7168.56
-7, -28.03, 7112.37
-6, -30.31, 7056.47
-5, -29.44, 7000.86
-4, -28.83, 6945.51
-3, -30.24, 6890.48
-2, -27.45, 6835.74
-1, -30.69, 6781.27
0, -30.38, 6673.27
-29, -22.93, 6619.69
-28, -30.67, 6566.43
-27, -22.51, 6513.45
-26, -31.58, 6460.79
-25, -21.35, 6408.42
-24, -30.98, 6356.34
-23, -20.88, 6304.58
-22, -29.53, 6253.12
-21, -19.47, 6201.96
-20, -28.27, 6151.09
-19, -19.00, 6100.53
-18, -27.38, 6050.28
-17, -19.65, 6000.35
-16, -25.37, 5950.68
-15, -19.98, 5901.35
-14, -22.69, 5852.31
-13, -19.76, 5803.58
-12, -20.94, 5755.17
-11, -20.59, 5707.05
-10, -19.56, 5659.24
-9, -22.17, 5611.72
-8, -17.28, 5564.51
-7, -22.53, 5517.62
-6, -16.16, 5471.01
-5, -22.73, 5424.72
-4, -14.19, 5378.72
-3, -23.04, 5333.04
-2, -13.05, 5287.66
-1, -22.02, 5242.58
0, -12.67, 5197.81
-29, -22.26, 5153.33
-28, -20.27, 5065.26
-27, -11.29, 5021.70
-26, -18.31, 4978.40
-25, -10.80, 4935.44
-24, -18.13, 4892.75
-23, -11.49, 4850.37
-22, -16.05, 4808.28
-21, -12.56, 4766.49
-20, -13.79, 4683.79
-19, -13.10, 4642.86
-18, -15.36, 4602.25
-17, -12.16, 4561.90
-16, -16.56, 4521.87
-15, -11.02, 4482.13
-14, -16.54, 4442.65
-13, -8.63, 4403.47
-12, -16.38, 4364.58
-11, -7.76, 4325.98
-10, -16.99, 4287.67
-9, -7.35, 4249.63
-8, -16.96, 4211.87
-7, -5.83, 4174.39
-6, -15.45, 4137.20
-5, -6.19, 4100.27
-4, -14.66, 4063.64
-3, -5.54, 4027.27
-2, -12.45, 3991.17
-1, -5.36, 3955.36
0, -10.15, 3919.82
-29, -6.35, 3884.55
-28, -7.24, 3814.82
-27, -7.42, 3746.15
-26, -4.02, 3712.20
-25, -7.20, 3678.54
-24, -2.12, 3645.12
-23, -0.51, 3579.09
-22, -8.38, 3546.46
-21, 0.07, 3514.10
-20, -9.41, 3481.98
-19, 0.27, 3450.10
-18, -10.37, 3418.50
-17, 0.76, 3387.14
-16, -9.48, 3356.02
-15, 0.65, 3325.18
-14, -8.43, 3294.56
-13, 0.51, 3264.18
-12, -7.06, 3234.07
-11, 0.56, 3204.19
-10, -5.99, 3174.55
-9, -0.09, 3145.16
-8, -4.18, 3116.01
-7, -1.50, 3087.09
-6, -3.40, 3058.41
-5, -1.59, 3001.75
-4, -3.53, 2973.79
-3, 0.72, 2946.03
-2, -4.38, 2918.51
-1, 2.01, 2891.22
0, -5.83, 2864.15
-29, 2.37, 2837.31
-28, -6.10, 2810.71
-27, 3.64, 2784.31
-26, -5.41, 2758.14
-25, 5.79, 2732.19
-24, -3.58, 2706.46
-23, 5.34, 2680.94
-22, 5.16, 2630.55
-21, -1.81, 2605.68
-20, 6.59, 2581.00
-19, -0.72, 2556.55
-18, 5.21, 2532.32
-17, 0.36, 2508.27
-16, 3.11, 2484.44
-15, 2.46, 2460.81
-14, 3.84, 2437.39
-13, 3.15, 2414.17
-12, 1.36, 2391.14
-11, 4.60, 2368.30
-10, 1.05, 2345.68
-9, 6.44, 2323.26
-8, 0.94, 2301.02
-7, 8.61, 2278.98
-6, 0.94, 2257.12
-5, 9.81, 2235.46
-4, 1.27, 2213.98
-3, 11.15, 2192.71
-2, -0.04, 2171.61
-1, 10.08, 2150.71
0, 0.13, 2129.96
-29, 10.04, 2109.42
-28, 1.16, 2089.06
-27, 9.63, 2068.88
-26, 1.52, 2048.87
-25, 7.71, 2029.05
-24, 2.10, 2009.38
-23, 7.78, 1989.91
-22, 4.96, 1970.60
-21, 6.95, 1951.46
-20, 5.34, 1932.51
-19, 4.83, 1913.71
-18, 6.41, 1895.09
-17, 2.57, 1876.63
-16, 7.29, 1858.32
-15, 1.90, 1840.20
-14, 8.31, 1822.25
-13, 1.30, 1804.43
-12, 9.37, 1786.80
-11, 0.22, 1769.32
-10, 0.92, 1734.81
-9, 11.40, 1717.80
-8, 1.39, 1700.95
-7, 11.67, 1684.25
-6, 2.30, 1667.69
-5, 11.85, 1651.28
-4, 4.81, 1635.03
-3, 12.05, 1618.94
-2, 5.03, 1602.98
-1, 11.09, 1587.17
0, 6.48, 1571.51
-29, 10.33, 1555.97
-28, 8.92, 1540.59
-27, 9.52, 1525.37
-26, 10.75, 1510.26
-25, 8.23, 1495.31
-24, 11.94, 1480.49
-23, 6.41, 1465.80
-22, 14.84, 1422.58
-21, 6.62, 1408.43
-20, 15.40, 1394.41
-19, 15.15, 1366.79
-18, 4.96, 1353.15
-17, 14.95, 1339.65
-16, 4.76, 1326.29
-15, 13.95, 1313.03
-14, 4.05, 1299.91
-13, 12.63, 1286.92
-12, 4.72, 1274.03
-11, 11.00, 1261.29
-10, 5.25, 1248.64
-9, 8.54, 1236.12
-8, 6.03, 1223.74
-7, 7.62, 1211.44
-6, 6.88, 1199.28
-5, 5.21, 1187.24
-4, 7.38, 1175.30
-3, 3.69, 1163.48
-2, 8.96, 1151.76
-1, 10.44, 1128.67
0, 2.15, 1117.27
-29, 10.39, 1106.01
-28, 1.48, 1094.86
-27, 9.99, 1083.79
-26, 0.13, 1072.84
-25, 9.99, 1061.98
-24, 0.00, 1051.25
-23, 9.97, 1040.61
-22, 1.52, 1030.06
-21, 10.39, 1019.62
-20, 9.79, 999.03
-19, 3.20, 988.91
-18, 8.23, 978.85
-17, 4.09, 968.90
-16, 5.61, 959.07
-15, 5.36, 949.30
-14, 4.81, 939.64
-13, 6.93, 930.08
-12, 8.38, 911.21
-11, 2.08, 901.92
-10, 8.36, 892.73
-9, 8.38, 874.58
-8, -0.65, 865.64
-7, 8.27, 856.79
-6, -0.83, 848.03
-5, 9.16, 839.35
-4, -0.92, 830.75
-3, 8.92, 822.25
-2, -0.07, 813.83
-1, 9.41, 805.47
0, 1.72, 797.22
-29, 8.76, 789.04
-28, 2.12, 780.93
-27, 6.71, 772.90
-26, 3.17, 764.97
-25, 6.12, 757.10
-24, 4.27, 749.30
-23, 5.12, 741.59
-22, 4.40, 726.39
-21, 7.87, 718.90
-20, 3.33, 711.48
-19, 8.63, 704.15
-18, 2.46, 696.88
-17, 9.39, 689.69
-16, 0.89, 682.56
-15, 8.96, 675.49
-14, -0.40, 668.52
-13, 8.52, 647.98
-12, -0.85, 641.27
-11, 8.69, 634.61
-10, 0.07, 628.04
-9, 8.05, 621.51
-8, -0.25, 615.08
-7, 5.59, 608.68
-6, 1.18, 602.36
-5, 4.90, 596.10
-4, 1.77, 589.91
-3, 4.05, 583.78
-2, 2.53, 577.70
-1, 1.90, 571.69
0, 3.40, 565.74
-29, 0.49, 559.84
-28, 5.25, 554.01
-27, -0.58, 548.24
-26, 5.92, 542.52
-25, -1.63, 536.87
-24, 6.35, 531.26
-23, -2.93, 525.71
-22, 7.40, 520.21
-21, -2.88, 514.78
-20, 6.64, 509.40
-19, -3.69, 504.08
-18, 6.62, 498.80
-17, -2.37, 493.59
-16, 6.30, 488.41
-15, -1.70, 483.31
-14, 4.83, 478.24
-13, -0.83, 473.23
-12, 4.05, 468.27
-11, 0.25, 463.35
-10, 3.64, 458.50
-9, 1.70, 453.67
-8, 2.08, 448.91
-7, 4.56, 444.20
-6, 1.72, 439.52
-5, 0.78, 430.34
-4, 6.86, 425.80
-3, -0.49, 421.33
-2, 7.98, 416.88
-1, -0.83, 412.50
0, 8.96, 408.14
-29, -1.50, 403.85
-28, 8.25, 399.60
-27, -1.12, 395.38
-26, 9.21, 391.20
-25, -0.58, 387.09
-24, 8.61, 383.00
-23, 0.22, 378.95
-22, 7.15, 374.95
-21, 0.98, 370.97
-20, 6.71, 367.06
-19, 2.03, 363.17
-18, 6.24, 359.33
-17, 4.74, 355.53
-16, 6.79, 351.77
-15, 7.53, 348.04
-14, 5.92, 344.35
-13, 9.03, 340.71
-12, 3.40, 337.09
-11, 9.14, 333.51
-10, 2.62, 329.98
-9, 10.93, 326.47
-8, 3.13, 323.01
-7, 11.76, 319.59
-6, 2.68, 316.19
-5, 12.54, 312.83
-4, 2.57, 309.50
-3, 12.11, 306.22
-2, 3.13, 302.96
-1, 12.09, 299.74
0, 4.20, 296.54
-29, 13.30, 293.39
-28, 5.39, 290.26
-27, 11.80, 287.18
-26, 5.92, 284.11
-25, 10.08, 281.07
-24, 7.29, 278.08
-23, 9.21, 275.13
-22, 8.87, 272.18
-21, 8.45, 269.27
-20, 10.68, 266.41
-19, 7.17, 263.55
-18, 4.92, 257.96
-17, 11.96, 255.19
-16, 4.92, 252.46
-15, 13.17, 249.78
-14, 4.65, 247.10
-13, 14.84, 244.46
-12, 5.01, 241.85
-11, 16.14, 239.25
-10, 6.53, 236.68
-9, 15.31, 234.16
-8, 5.41, 231.63
-7, 14.55, 229.15
-6, 6.10, 226.69
-5, 12.92, 224.28
-4, 6.59, 221.86
-3, 11.73, 219.47
-2, 7.29, 217.12
-1, 10.91, 214.80
0, 9.95, 212.48
-29, 9.66, 210.20
-28, 11.09, 207.94
-27, 7.98, 205.70
-26, 11.78, 203.49
-25, 5.83, 201.30
-24, 12.16, 199.13
-23, 6.10, 197.01
-22, 14.44, 194.88
-21, 5.77, 192.78
-20, 15.96, 190.71
-19, 6.08, 188.65
-18, 15.76, 186.61
-17, 5.77, 184.60
-16, 16.21, 182.61
-15, 5.43, 180.65
-14, 14.89, 178.70
-13, 7.55, 176.76
-12, 15.40, 174.86
-11, 8.69, 172.98
-10, 14.42, 171.10
-9, 12.70, 167.41
-8, 10.73, 165.63
-7, 12.41, 163.82
-6, 13.57, 162.05
-5, 12.36, 160.31
-4, 15.47, 158.56
-3, 11.06, 156.84
-2, 16.92, 155.14
-1, 10.80, 153.47
0, 18.69, 151.81
-29, 10.53, 150.16
-28, 18.57, 148.55
-27, 20.16, 145.33
-26, 10.82, 143.77
-25, 21.06, 142.20
-24, 10.26, 140.66
-23, 19.60, 139.14
-22, 10.35, 137.62
-21, 19.40, 136.12
-20, 12.38, 134.65
-19, 18.82, 133.19
-18, 12.47, 131.74
-17, 16.63, 130.31
-16, 12.27, 128.90
-15, 14.55, 127.49
-14, 14.64, 126.11
-13, 14.71, 124.72
-12, 17.10, 123.38
-11, 14.08, 122.04
-10, 17.37, 120.70
-9, 10.77, 119.38
-8, 17.61, 118.08
-7, 10.55, 116.81
-6, 18.55, 115.54
-5, 9.52, 114.28
-4, 18.57, 113.03
-3, 8.61, 111.80
-2, 18.13, 110.57
-1, 8.69, 109.37
0, 19.02, 108.18
-29, 9.61, 107.00
-28, 19.27, 105.84
-27, 11.42, 104.67
-26, 18.06, 103.53
-25, 10.39, 102.39
-24, 16.88, 101.28
-23, 12.92, 100.18
-22, 16.00, 99.09
-21, 15.09, 97.99
-20, 15.00, 96.92
-19, 16.92, 95.87
-18, 14.37, 94.82
-17, 18.28, 93.79
-16, 12.99, 92.76
-15, 18.57, 91.73
-14, 12.32, 90.73
-13, 20.52, 89.74
-12, 12.36, 88.76
-11, 22.06, 87.78
-10, 11.73, 86.81
-9, 21.28, 85.88
-8, 11.65, 84.94
-7, 20.30, 84.00
-6, 10.66, 83.08
-5, 20.88, 82.17
-4, 11.98, 81.27
-3, 19.89, 80.38
-2, 12.76, 79.48
-1, 19.22, 78.61
0, 14.75, 77.76
-29, 19.22, 76.89
-28, 17.23, 76.06
-27, 16.96, 75.21
-26, 16.65, 74.39
-25, 15.42, 73.58
-24, 18.24, 72.78
-23, 13.57, 71.97
-22, 19.38, 71.17
-21, 13.14, 70.39
-20, 19.76, 69.63
-19, 12.52, 68.84
-18, 21.14, 68.08
-17, 11.02, 67.35
-16, 20.94, 66.61
-15, 9.72, 65.87
-14, 19.13, 65.13
-13, 9.41, 64.42
-12, 19.09, 63.72
-11, 10.13, 63.01
-10, 18.78, 62.32
-9, 10.44, 61.62
-8, 17.59, 60.95
-7, 11.56, 60.28
-6, 15.15, 59.61
-5, 11.24, 58.96
-4, 12.52, 58.32
-3, 10.66, 57.67
-2, 10.30, 57.02
-1, 12.05, 56.39
0, 8.76, 55.77
-29, 13.34, 55.16
-28, 7.62, 54.54
-27, 14.60, 53.93
-26, 7.58, 53.35
-25, 15.69, 52.75
-24, 7.64, 52.17
-23, 16.41, 51.61
-22, 7.17, 51.03
-21, 16.88, 50.47
-20, 6.50, 49.91
-19, 7.42, 48.82
-18, 16.47, 48.26
-17, 8.05, 47.74
-16, 15.49, 47.21
-15, 8.78, 46.67
-14, 13.41, 46.16
-13, 9.23, 45.64
-12, 12.94, 45.15
-11, 9.88, 44.64
-10, 9.68, 43.65
-9, 7.15, 43.18
-8, 5.79, 42.22
-7, 11.58, 41.75
-6, 4.60, 41.28
-5, 10.86, 40.84
-4, 2.97, 40.39
-3, 11.02, 39.94
-2, 1.83, 39.50
-1, 10.82, 39.05
0, 10.35, 38.18
-29, 0.04, 37.75
-28, 10.04, 37.35
-27, 0.60, 36.93
-26, 9.05, 36.52
-25, 0.11, 36.12
-24, 5.95, 35.72
-23, 1.05, 35.32
-22, 4.81, 34.91
-21, 1.81, 34.53
-20, 3.26, 34.15
-19, 2.66, 33.77
-18, 2.15, 33.39
-17, 4.87, 33.01
-16, 1.59, 32.66
-15, 6.44, 32.28
-14, -0.11, 31.92
-13, 7.17, 31.56
-12, -0.02, 31.23
-11, 7.62, 30.87
-10, -0.89, 30.53
-9, 8.92, 30.20
-8, -0.87, 29.84
-7, 9.79, 29.53
-6, 0.38, 29.19
-5, 9.92, 28.86
-4, 1.30, 28.54
-3, 10.08, 28.23
-2, 2.21, 27.92
-1, 10.28, 27.60
0, 3.73, 27.29
-29, 8.78, 26.98
-28, 4.72, 26.69
-27, 7.51, 26.38
-26, 5.81, 26.08
-25, 5.92, 25.79
-24, 7.67, 25.50
-23, 5.45, 25.21
-22, 4.43, 24.65
-21, 11.38, 24.39
-20, 4.16, 24.12
-19, 13.63, 23.85
-18, 4.85, 23.58
-17, 14.24, 23.31
-16, 3.89, 23.04
-15, 13.59, 22.80
-14, 3.53, 22.53
-13, 13.93, 22.28
-12, 4.20, 22.04
-11, 13.75, 21.79
-10, 5.30, 21.55
-9, 12.67, 21.30
-8, 12.23, 20.83
-7, 6.91, 20.61
-6, 10.75, 20.36
-5, 8.99, 20.14
-4, 10.93, 19.92
-3, 12.16, 19.69
-2, 10.91, 19.47
-1, 13.34, 19.24
0, 8.56, 19.04
-29, 13.30, 18.82
-28, 7.17, 18.62
-27, 14.82, 18.40
-26, 7.02, 18.19
-25, 15.87, 17.99
-24, 6.59, 17.79
-23, 16.14, 17.59
-22, 7.40, 17.39
-21, 17.26, 17.19
-20, 7.87, 17.01
-19, 18.24, 16.81
-18, 9.07, 16.63
-17, 17.14, 16.43
-16, 8.81, 16.25
-15, 15.98, 16.07
-14, 10.24, 15.89
-13, 15.31, 15.71
-12, 12.49, 15.53
-11, 13.30, 15.36
-10, 12.65, 15.18
-9, 15.11, 14.84
-8, 12.45, 14.69
-7, 16.58, 14.51
-6, 10.93, 14.35
-5, 17.50, 14.19
-4, 10.13, 14.04
-3, 17.86, 13.86
-2, 8.76, 13.70
-1, 17.77, 13.57
0, 7.26, 13.41
-29, 17.93, 13.25
-28, 8.25, 13.10
-27, 17.81, 12.96
-26, 8.47, 12.81
-25, 17.97, 12.67
-24, 9.21, 12.52
-23, 9.90, 12.25
-22, 15.78, 12.11
-21, 11.44, 11.96
-20, 14.64, 11.82
-19, 13.95, 11.69
-18, 13.25, 11.58
-17, 14.57, 11.44
-16, 13.41, 11.31
-15, 17.26, 11.18
-14, 12.99, 11.06
-13, 18.69, 10.93
-12, 12.54, 10.80
-11, 19.27, 10.68
-10, 10.66, 10.57
-9, 19.89, 10.44
-8, 9.66, 10.33
-7, 20.61, 10.21
-6, 10.28, 10.10
-5, 19.31, 9.97
-4, 9.70, 9.86
-3, 19.16, 9.75
-2, 10.97, 9.63
-1, 19.36, 9.54
0, 11.89, 9.43
-29, 17.88, 9.32
-28, 12.18, 9.21
-27, 16.29, 9.12
-26, 13.97, 9.01
-25, 15.83, 8.81
-24, 14.17, 8.69
-23, 17.66, 8.61
-22, 12.92, 8.52
-21, 17.59, 8.40
-20, 12.11, 8.31
-19, 19.18, 8.23
-18, 11.00, 8.14
-17, 19.78, 8.05
-16, 9.25, 7.93
-15, 18.44, 7.85
-14, 8.00, 7.76
-13, 7.11, 7.60
-12, 16.96, 7.51
-11, 7.55, 7.42
-10, 17.03, 7.33
-9, 8.74, 7.24
-8, 15.36, 7.17
-7, 9.48, 7.09
-6, 14.31, 7.02
-5, 10.30, 6.93
-4, 12.29, 6.84
-3, 11.65, 6.77
-2, 11.11, 6.71
-1, 10.77, 6.55
0, 14.37, 6.46
-29, 9.61, 6.39
-28, 16.09, 6.33
-27, 17.79, 6.19
-26, 8.92, 6.10
-25, 18.24, 6.03
-24, 8.20, 5.97
-23, 17.81, 5.90
-22, 17.34, 5.77
-21, 8.27, 5.70
-20, 16.56, 5.63
-19, 8.67, 5.57
-18, 15.98, 5.52
-17, 9.75, 5.45
-16, 15.56, 5.39
-15, 10.48, 5.32
-14, 14.24, 5.28
-13, 12.25, 5.21
-12, 13.19, 5.14
-11, 13.75, 5.10
-10, 12.43, 5.03
-9, 15.13, 4.96
-8, 11.20, 4.92
-7, 16.41, 4.85
-6, 10.39, 4.81
-5, 18.02, 4.74
-4, 9.75, 4.69
-3, 18.93, 4.65
-2, 18.71, 4.54
-1, 7.91, 4.49
0, 17.88, 4.43
-29, 8.23, 4.38
-28, 17.70, 4.34
-27, 16.65, 4.22
-26, 9.01, 4.18
-25, 15.80, 4.14
-24, 11.73, 4.09
-23, 16.21, 4.05
-22, 13.59, 4.00
-21, 14.44, 3.96
-20, 14.66, 3.91
-19, 13.34, 3.87
-18, 15.98, 3.82
-17, 12.45, 3.78
-16, 16.92, 3.73
-15, 12.00, 3.69
-14, 18.82, 3.64
-13, 12.25, 3.60
-12, 20.79, 3.55
-11, 11.31, 3.53
-10, 21.55, 3.49
-9, 11.80, 3.44
-8, 20.79, 3.40
-7, 10.57, 3.38
-6, 20.59, 3.33
-5, 11.73, 3.29
-4, 21.06, 3.24
-3, 13.32, 3.22
-2, 19.76, 3.17
-1, 12.07, 3.13
0, 17.05, 3.11
-29, 13.48, 3.06
-28, 16.58, 3.04
-27, 14.93, 3.00
-26, 14.69, 2.97
-25, 15.60, 2.93
-24, 12.34, 2.91
-23, 11.29, 2.84
-22, 17.17, 2.79
-21, 9.88, 2.77
-20, 17.14, 2.73
-19, 7.98, 2.70
-18, 17.26, 2.68
-17, 7.67, 2.64
-16, 17.75, 2.62
-15, 7.85, 2.57
-14, 18.13, 2.55
-13, 8.27, 2.53
-12, 16.47, 2.50
-11, 8.78, 2.46
-10, 16.29, 2.44
-9, 9.79, 2.41
-8, 15.45, 2.37
-7, 10.62, 2.35
-6, 15.22, 2.32
-5, 12.05, 2.30
-4, 13.48, 2.28
-3, 13.48, 2.24
-2, 12.25, 2.21
-1, 15.13, 2.19
0, 10.95, 2.17
-29, 16.58, 2.15
-28, 9.59, 2.12
-27, 16.05, 2.10
-26, 8.31, 2.08
-25, 17.37, 2.06
-24, 7.60, 2.03
-23, 17.10, 1.99
-22, 7.04, 1.97
-21, 16.27, 1.94
-20, 6.82, 1.92
-19, 17.26, 1.90
-18, 7.73, 1.88
-17, 7.98, 1.86
-16, 13.99, 1.83
-15, 8.38, 1.81
-14, 13.63, 1.79
-13, 10.33, 1.77
-12, 12.56, 1.74
-11, 12.38, 1.72
-10, 11.09, 1.70
-9, 13.39, 1.68
-8, 10.57, 1.65
-7, 9.01, 1.63
-6, 16.09, 1.61
-5, 9.01, 1.59
-4, 17.99, 1.56
-3, 9.05, 1.54
-2, 18.73, 1.54
-1, 8.90, 1.52
0, 18.53, 1.50
-29, 9.57, 1.48
-28, 19.65, 1.45
-27, 9.41, 1.45
-26, 18.42, 1.43
-25, 10.82, 1.41
-24, 17.79, 1.39
-23, 12.54, 1.39
-22, 17.88, 1.36
-21, 13.81, 1.34
-20, 16.27, 1.34
-19, 15.45, 1.32
-18, 15.71, 1.30
-17, 16.72, 1.30
-16, 14.13, 1.27
-15, 17.05, 1.25
-14, 11.91, 1.25
-13, 18.42, 1.23
-12, 10.97, 1.21
-11, 18.42, 1.21
-10, 9.52, 1.18
-9, 19.13, 1.16
-8, 9.34, 1.16
-7, 19.00, 1.14
-6, 9.63, 1.14
-5, 18.82, 1.12
-4, 8.52, 1.10
-3, 17.08, 1.10
-2, 8.61, 1.07
-1, 16.07, 1.07
0, 9.28, 1.05
-29, 15.76, 1.05
-28, 9.83, 1.03
-27, 12.41, 1.03
-26, 9.57, 1.01
-25, 11.42, 0.98
-24, 11.18, 0.98
-23, 10.08, 0.96
-22, 12.65, 0.96
-21, 9.03, 0.94
-20, 14.77, 0.94
-19, 8.56, 0.92
-18, 15.29, 0.92
-17, 6.68, 0.92
-16, 15.47, 0.89
-15, 7.20, 0.89
-14, 16.85, 0.87
-13, 6.82, 0.87
-12, 15.91, 0.85
-11, 5.86, 0.85
-10, 15.60, 0.83
-9, 6.62, 0.83
-8, 15.24, 0.80
-7, 7.80, 0.80
-6, 14.28, 0.80
-5, 9.52, 0.78
-4, 14.39, 0.78
-3, 10.80, 0.76
-2, 13.17, 0.76
-1, 11.76, 0.76
0, 9.97, 0.74
-29, 11.51, 0.74
-28, 8.58, 0.72
-27, 13.97, 0.72
-26, 8.76, 0.72
-25, 15.91, 0.69
-24, 9.48, 0.69
-23, 17.64, 0.69
-22, 9.10, 0.67
-21, 18.64, 0.67
-20, 7.93, 0.65
-19, 18.24, 0.65
-18, 8.27, 0.65
-17, 17.75, 0.63
-16, 9.23, 0.63
-15, 17.68, 0.63
-14, 8.81, 0.60
-13, 16.92, 0.60
-12, 10.68, 0.60
-11, 16.32, 0.60
-10, 12.03, 0.58
-9, 16.09, 0.58
-8, 13.34, 0.58
-7, 14.22, 0.56
-6, 15.24, 0.56
-5, 12.54, 0.56
-4, 16.03, 0.54
-3, 11.89, 0.54
-2, 16.85, 0.54
-1, 10.10, 0.54
0, 17.43, 0.51
-29, 9.14, 0.51
-28, 18.22, 0.51
-27, 8.40, 0.49
-26, 18.06, 0.49
-25, 7.62, 0.49
-24, 17.86, 0.49
-23, 9.52, 0.47
-22, 18.82, 0.47
-21, 10.28, 0.47
-20, 18.33, 0.47
-19, 11.13, 0.45
-18, 16.79, 0.45
-17, 11.91, 0.45
-16, 15.07, 0.45
-15, 11.31, 0.42
-14, 12.72, 0.42
-13, 12.20, 0.42
-12, 11.31, 0.42
-11, 14.13, 0.42
-10, 10.39, 0.40
-9, 15.69, 0.40
-8, 9.57, 0.40
-7, 15.80, 0.40
-6, 7.96, 0.38
-5, 16.23, 0.38
-4, 7.33, 0.38
-3, 17.37, 0.38
-2, 7.82, 0.38
-1, 17.57, 0.36
0, 7.67, 0.36
-29, 16.76, 0.36
-28, 8.34, 0.36
-27, 17.21, 0.36
-26, 9.01, 0.34
-25, 15.87, 0.34
-24, 10.08, 0.34
-23, 14.77, 0.34
-22, 11.78, 0.34
-21, 14.91, 0.34
-20, 13.48, 0.31
-19, 13.01, 0.31
-18, 14.24, 0.31
-17, 10.91, 0.31
-16, 14.71, 0.31
-15, 9.03, 0.31
-14, 15.76, 0.29
-13, 8.90, 0.29
-12, 17.21, 0.29
-11, 8.78, 0.29
-10, 16.81, 0.29
-9, 7.29, 0.29
-8, 16.83, 0.27
-7, 7.38, 0.27
-6, 17.21, 0.27
-5, 6.68, 0.27
-4, 15.40, 0.27
-3, 6.68, 0.27
-2, 14.48, 0.27
-1, 8.07, 0.25
0, 14.64, 0.25
-29, 10.30, 0.25
-28, 13.32, 0.25
-27, 10.68, 0.25
-26, 11.15, 0.25
-25, 10.55, 0.25
-24, 7.93, 0.25
-23, 10.46, 0.22
-22, 6.75, 0.22
-21, 11.91, 0.22
-20, 5.25, 0.22
-19, 13.19, 0.22
-18, 5.21, 0.22
-17, 13.79, 0.22
-16, 4.18, 0.22
-15, 14.17, 0.20
-14, 3.67, 0.20
-13, 13.79, 0.20
-12, 4.58, 0.20
-11, 13.79, 0.20
-10, 5.14, 0.20
-9, 13.68, 0.20
-8, 6.57, 0.20
-7, 13.14, 0.20
-6, 8.16, 0.18
-5, 12.54, 0.18
-4, 9.03, 0.18
-3, 11.94, 0.18
-2, 11.02, 0.18
-1, 9.70, 0.18
0, 12.09, 0.18
-29, 7.76, 0.18
-28, 12.05, 0.18
-27, 7.42, 0.18
-26, 14.13, 0.16
-25, 6.01, 0.16
-24, 14.42, 0.16
-23, 4.87, 0.16
-22, 14.37, 0.16
-21, 5.05, 0.16
-20, 15.76, 0.16
-19, 5.03, 0.16
-18, 14.33, 0.16
-17, 4.43, 0.16
-16, 13.46, 0.16
-15, 5.16, 0.13
-14, 11.94, 0.13
-13, 4.92, 0.13
-12, 9.21, 0.13
-11, 4.83, 0.13
-10, 8.47, 0.13
-9, 7.15, 0.13
-8, 7.31, 0.13
-7, 8.20, 0.13
-6, 4.94, 0.13
-5, 8.47, 0.13
-4, 3.55, 0.13
-3, 9.97, 0.13
-2, 3.13, 0.11
-1, 10.33, 0.11
0, 1.74, 0.11
-29, 10.68, 0.11
-28, 1.12, 0.11
-27, 11.65, 0.11
-26, 2.19, 0.11
-25, 11.06, 0.11
-24, 1.36, 0.11
-23, 10.55, 0.11
-22, 1.23, 0.11
-21, 9.01, 0.11
-20, 2.77, 0.11
-19, 9.25, 0.11
-18, 4.49, 0.11
-17, 8.25, 0.11
-16, 5.34, 0.09
-15, 6.24, 0.09
-14, 6.28, 0.09
-13, 5.12, 0.09
-12, 7.11, 0.09
-11, 3.02, 0.09
-10, 7.55, 0.09
-9, 1.99, 0.09
-8, 9.07, 0.09
-7, 1.70, 0.09
-6, 9.95, 0.09
-5, 1.10, 0.09
-4, 10.48, 0.09
-3, 0.72, 0.09
-2, 10.73, 0.09
-1, 0.56, 0.09
0, 10.55, 0.09
-29, 2.08, 0.09
-28, 10.71, 0.09
-27, 3.13, 0.07
-26, 9.92, 0.07
-25, 4.05, 0.07
-24, 7.98, 0.07
-23, 4.07, 0.07
-22, 6.46, 0.07
-21, 5.79, 0.07
-20, 6.46, 0.07
-19, 8.85, 0.07
-18, 5.54, 0.07
-17, 8.34, 0.07
-16, 2.68, 0.07
-15, 9.10, 0.07
-14, 1.59, 0.07
-13, 10.15, 0.07
-12, 1.90, 0.07
-11, 11.78, 0.07
-10, 2.77, 0.07
-9, 13.17, 0.07
-8, 3.24, 0.07
-7, 12.56, 0.07
-6, 2.15, 0.07
-5, 11.22, 0.07
-4, 2.41, 0.07
-3, 10.35, 0.07
-2, 3.38, 0.04
-1, 8.23, 0.04
0, 3.44, 0.04
-29, 6.59, 0.04
-28, 5.92, 0.04
-27, 7.51, 0.04
-26, 5.86, 0.04
-25, 8.92, 0.04
-24, 3.44, 0.04
-23, 8.61, 0.04
-22, 2.17, 0.04
-21, 1.16, 0.04
-20, 0.02, 0.04
-19, 10.80, 0.04
-18, 1.14, 0.04
-17, 11.78, 0.04
-16, 2.12, 0.04
-15, 10.64, 0.04
-14, 2.70, 0.04
-13, 10.30, 0.04
-12, 2.82, 0.04
-11, 9.03, 0.04
-10, 3.24, 0.04
-9, 8.09, 0.04
-8, 4.90, 0.04
-7, 6.37, 0.04
-6, 6.08, 0.04
-5, 4.36, 0.04
-4, 6.37, 0.04
-3, 3.29, 0.04
-2, 7.60, 0.04
-1, 1.74, 0.02
0, 8.36, 0.02
-29, 0.54, 0.02
-28, 9.50, 0.02
-27, 0.89, 0.02
-26, 1.94, 0.02
-25, 12.94, 0.02
-24, 3.40, 0.02
-23, 13.59, 0.02
-22, 4.47, 0.02
-21, 12.29, 0.02
-20, 4.27, 0.02
-19, 12.00, 0.02
-18, 5.72, 0.02
-17, 10.51, 0.02
-16, 7.02, 0.02
-15, 8.58, 0.02
-14, 8.11, 0.02
-13, 7.91, 0.02
-12, 5.54, 0.02
-11, 9.21, 0.02
-10, 4.56, 0.02
-9, 11.78, 0.02
-8, 4.38, 0.02
-7, 12.70, 0.02
-6, 4.38, 0.02
-5, 12.65, 0.02
-4, 3.17, 0.02
-3, 13.30, 0.02
-2, 2.73, 0.02
-1, 12.47, 0.02
0, 3.64, 0.02
-29, 12.47, 0.02
-28, 12.45, 0.02
-27, 4.67, 0.02
-26, 10.59, 0.02
-25, 10.24, 0.02
-24, 8.09, 0.02
-23, 9.66, 0.02
-22, 9.95, 0.02
-21, 7.80, 0.02
-20, 10.26, 0.02
-19, 6.57, 0.02
-18, 10.73, 0.02
-17, 4.56, 0.02
-16, 11.91, 0.02
-15, 2.86, 0.02
-14, 12.03, 0.02
-13, 2.75, 0.02
-12, 11.87, 0.02
-11, 2.17, 0.02
-10, 11.94, 0.02
-9, 1.61, 0.02
-8, 12.03, 0.02
-7, 4.07, 0.02
-6, 12.52, 0.00
-5, 5.21, 0.00
-4, 10.84, 0.00
-3, 5.23, 0.00
-2, 8.96, 0.00
-1, 6.17, 0.00
0, 7.91, 0.00
-29, 6.84, 0.00
-28, 6.26, 0.00
-27, 9.25, 0.00
-26, 6.12, 0.00
-25, 10.68, 0.00
-24, 5.59, 0.00
-23, 12.05, 0.00
-22, 5.07, 0.00
-21, 13.32, 0.00
-20, 4.00, 0.00
-19, 13.81, 0.00
-18, 4.22, 0.00
-17, 13.86, 0.00
-16, 4.65, 0.00
-15, 14.15, 0.00
-14, 4.85, 0.00
-13, 13.93, 0.00
-12, 5.99, 0.00
-11, 12.52, 0.00
-10, 5.97, 0.00
-9, 12.87, 0.00
-8, 8.38, 0.00
-7, 11.00, 0.00
-6, 9.14, 0.00
-5, 10.13, 0.00
-4, 10.51, 0.00
-3, 8.90, 0.00
-2, 12.27, 0.00
-1, 6.75, 0.00
0, 13.08, 0.00
-29, 13.46, 0.00
-28, 5.36, 0.00
-27, 13.66, 0.00
-26, 3.60, 0.00
-25, 13.88, 0.00
-24, 14.04, 0.00
-23, 4.05, 0.00
-22, 13.61, 0.00
-21, 4.56, 0.00
-20, 13.14, 0.00
-19, 6.95, 0.00
-18, 8.18, 0.00
-17, 12.03, 0.00
-16, 9.81, 0.00
-15, 10.80, 0.00
-14, 10.95, 0.00
-13, 9.70, 0.00
-12, 11.69, 0.00
-11, 8.16, 0.00
-10, 14.06, 0.00
-9, 7.71, 0.00
-8, 15.80, 0.00
-7, 7.29, 0.00
-6, 16.12, 0.00
-5, 6.59, 0.00
-4, 16.47, 0.00
-3, 6.21, 0.00
-2, 17.12, 0.00
-1, 7.13, 0.00
0, 16.47, 0.00
-29, 7.38, 0.00
-28, 16.56, 0.00
-27, 8.54, 0.00
-26, 16.27, 0.00
-25, 10.39, 0.00
-24, 15.04, 0.00
-23, 10.62, 0.00
-22, 14.37, 0.00
-21, 12.72, 0.00
-20, 14.53, 0.00
-19, 11.60, 0.00
-18, 14.77, 0.00
-17, 9.52, 0.00
-16, 15.91, 0.00
-15, 8.29, 0.00
-14, 16.76, 0.00
-13, 8.25, 0.00
-12, 17.64, 0.00
-11, 7.33, 0.00
-10, 17.14, 0.00
-9, 6.95, 0.00
-8, 16.76, 0.00
-7, 7.82, 0.00
-6, 16.36, 0.00
-5, 8.29, 0.00
-4, 16.38, 0.00
-3, 9.21, 0.00
-2, 9.70, 0.00
-1, 12.41, 0.00
0, 9.79, 0.00
-29, 11.00, 0.00
-28, 11.94, 0.00
-27, 10.33, 0.00
-26, 13.19, 0.00
-25, 8.58, 0.00
-24, 14.17, 0.00
-23, 7.89, 0.00
-22, 16.09, 0.00
-21, 8.63, 0.00
-20, 17.52, 0.00
-19, 7.02, 0.00
-18, 16.74, 0.00
-17, 7.40, 0.00
-16, 17.95, 0.00
-15, 18.95, 0.00
-14, 9.86, 0.00
-13, 17.23, 0.00
-12, 9.75, 0.00
-11, 16.45, 0.00
-10, 10.55, 0.00
-9, 14.71, 0.00
-8, 11.47, 0.00
-7, 12.03, 0.00
-6, 10.97, 0.00
-5, 10.97, 0.00
-4, 12.65, 0.00
-3, 9.70, 0.00
-2, 14.17, 0.00
-1, 8.96, 0.00
0, 15.65, 0.00
-29, 8.43, 0.00
-28, 17.37, 0.00
-27, 8.00, 0.00
-26, 17.30, 0.00
-25, 7.26, 0.00
-24, 16.45, 0.00
-23, 5.32, 0.00
-22, 15.45, 0.00
-21, 6.37, 0.00
-20, 15.18, 0.00
-19, 6.88, 0.00
-18, 14.37, 0.00
-17, 8.00, 0.00
-16, 13.81, 0.00
-15, 10.71, 0.00
-14, 13.50, 0.00
-13, 11.49, 0.00
-12, 10.68, 0.00
-11, 12.34, 0.00
-10, 9.61, 0.00
-9, 13.68, 0.00
-8, 9.48, 0.00
-7, 14.31, 0.00
-6, 7.09, 0.00
-5, 14.62, 0.00
-4, 5.79, 0.00
-3, 14.48, 0.00
-2, 5.10, 0.00
-1, 15.04, 0.00
0, 4.87, 0.00
-29, 15.91, 0.00
-28, 5.99, 0.00
-27, 15.94, 0.00
-26, 6.86, 0.00
-25, 14.48, 0.00
-24, 7.40, 0.00
-23, 13.52, 0.00
-22, 8.09, 0.00
-21, 11.69, 0.00
-20, 9.86, 0.00
-19, 10.30, 0.00
-18, 10.51, 0.00
-17, 9.05, 0.00
-16, 10.97, 0.00
-15, 7.04, 0.00
-14, 11.96, 0.00
-13, 5.32, 0.00
-12, 12.16, 0.00
-11, 4.45, 0.00
-10, 12.85, 0.00
-9, 3.26, 0.00
-8, 12.83, 0.00
-7, 2.66, 0.00
-6, 13.03, 0.00
-5, 3.00, 0.00
-4, 13.61, 0.00
-3, 4.00, 0.00
-2, 12.67, 0.00
-1, 4.63, 0.00
0, 12.36, 0.00
-29, 6.68, 0.00
-28, 12.05, 0.00
-27, 9.25, 0.00
-26, 10.86, 0.00
-25, 10.10, 0.00
-24, 9.66, 0.00
-23, 11.67, 0.00
-22, 9.07, 0.00
-21, 12.79, 0.00
-20, 7.89, 0.00
-19, 13.61, 0.00
-18, 5.81, 0.00
-17, 13.66, 0.00
-16, 5.57, 0.00
-15, 14.80, 0.00
-14, 4.87, 0.00
-13, 15.58, 0.00
-12, 4.78, 0.00
-11, 15.11, 0.00
-10, 6.77, 0.00
-9, 15.62, 0.00
-8, 7.93, 0.00
-7, 14.98, 0.00
-6, 8.85, 0.00
-5, 14.69, 0.00
-4, 9.92, 0.00
-3, 13.21, 0.00
-2, 11.44, 0.00
-1, 12.16, 0.00
0, 14.13, 0.00
-29, 12.16, 0.00
-28, 16.00, 0.00
-27, 9.90, 0.00
-26, 15.76, 0.00
-25, 9.43, 0.00
-24, 16.47, 0.00
-23, 8.92, 0.00
-22, 17.55, 0.00
-21, 8.40, 0.00
-20, 18.06, 0.00
-19, 7.71, 0.00
-18, 17.10, 0.00
-17, 6.73, 0.00
-16, 15.56, 0.00
-15, 6.64, 0.00
-14, 14.06, 0.00
-13, 7.09, 0.00
-12, 13.61, 0.00
-11, 8.81, 0.00
-10, 13.28, 0.00
-9, 10.35, 0.00
-8, 12.45, 0.00
-7, 12.16, 0.00
-6, 12.09, 0.00
-5, 14.75, 0.00
-4, 10.55, 0.00
-3, 15.40, 0.00
-2, 8.11, 0.00
-1, 14.26, 0.00
0, 7.00, 0.00
-29, 15.29, 0.00
-28, 6.01, 0.00
-27, 16.36, 0.00
-26, 6.46, 0.00
-25, 16.47, 0.00
-24, 7.24, 0.00
-23, 16.12, 0.00
-22, 6.30, 0.00
-21, 14.91, 0.00
-20, 6.97, 0.00
-19, 14.08, 0.00
-18, 8.11, 0.00
-17, 13.12, 0.00
-16, 8.90, 0.00
-15, 11.71, 0.00
-14, 11.13, 0.00
-13, 11.06, 0.00
-12, 12.63, 0.00
-11, 9.83, 0.00
-10, 13.86, 0.00
-9, 8.78, 0.00
-8, 14.51, 0.00
-7, 7.44, 0.00
-6, 6.19, 0.00
-5, 16.38, 0.00
-4, 6.91, 0.00
-3, 15.94, 0.00
-2, 5.45, 0.00
-1, 14.80, 0.00
0, 5.74, 0.00
-29, 15.56, 0.00
-28, 7.24, 0.00
-27, 14.06, 0.00
-26, 6.19, 0.00
-25, 11.67, 0.00
-24, 7.87, 0.00
-23, 11.73, 0.00
-22, 10.59, 0.00
-21, 11.22, 0.00
-20, 11.38, 0.00
-19, 9.05, 0.00
-18, 11.65, 0.00
-17, 6.86, 0.00
-16, 12.49, 0.00
-15, 7.20, 0.00
-14, 14.95, 0.00
-13, 6.12, 0.00
-12, 15.18, 0.00
-11, 6.35, 0.00
-10, 15.60, 0.00
-9, 5.90, 0.00
-8, 15.71, 0.00
-7, 5.39, 0.00
-6, 14.77, 0.00
-5, 6.88, 0.00
-4, 15.78, 0.00
-3, 7.51, 0.00
-2, 13.99, 0.00
-1, 7.73, 0.00
0, 11.89, 0.00
-29, 8.81, 0.00
-28, 9.63, 0.00
-27, 11.80, 0.00
-26, 7.87, 0.00
-25, 12.87, 0.00
-24, 6.15, 0.00
-23, 12.70, 0.00
-22, 5.57, 0.00
-21, 14.64, 0.00
-20, 5.43, 0.00
-19, 15.87, 0.00
-18, 5.57, 0.00
-17, 15.49, 0.00
-16, 5.14, 0.00
-15, 15.33, 0.00
-14, 5.74, 0.00
-13, 14.55, 0.00
-12, 5.86, 0.00
-11, 13.28, 0.00
-10, 7.20, 0.00
-9, 12.20, 0.00
-8, 8.83, 0.00
-7, 10.93, 0.00
-6, 8.85, 0.00
-5, 9.19, 0.00
-4, 11.02, 0.00
-3, 8.58, 0.00
-2, 13.23, 0.00
-1, 8.36, 0.00
0, 14.13, 0.00
-29, 6.46, 0.00
-28, 14.31, 0.00
-27, 5.65, 0.00
-26, 14.98, 0.00
-25, 6.48, 0.00
-24, 16.72, 0.00
-23, 6.30, 0.00
-22, 16.14, 0.00
-21, 5.70, 0.00
-20, 14.75, 0.00
-19, 6.17, 0.00
-18, 14.31, 0.00
-17, 6.82, 0.00
-16, 12.38, 0.00
-15, 7.58, 0.00
-14, 11.60, 0.00
-13, 8.45, 0.00
-12, 9.54, 0.00
-11, 8.18, 0.00
-10, 10.73, 0.00
-9, 7.69, 0.00
-8, 13.14, 0.00
-7, 7.93, 0.00
-6, 14.82, 0.00
-5, 6.46, 0.00
-4, 14.91, 0.00
-3, 6.17, 0.00
-2, 15.71, 0.00
-1, 5.07, 0.00
0, 14.26, 0.00
-29, 3.60, 0.00
-28, 12.74, 0.00
-27, 3.33, 0.00
-26, 11.73, 0.00
-25, 3.31, 0.00
-24, 10.08, 0.00
-23, 4.56, 0.00
-22, 8.85, 0.00
-21, 5.25, 0.00
-20, 7.80, 0.00
-19, 6.97, 0.00
-18, 6.84, 0.00
-17, 8.00, 0.00
-16, 3.78, 0.00
-15, 7.73, 0.00
-14, 2.70, 0.00
-13, 8.49, 0.00
-12, 2.06, 0.00
-11, 9.34, 0.00
-10, 0.34, 0.00
-9, 10.51, 0.00
-8, 0.56, 0.00
-7, 10.21, 0.00
-6, -0.18, 0.00
-5, 9.50, 0.00
-4, -0.87, 0.00
-3, 8.54, 0.00
-2, -0.78, 0.00
-1, 6.53, 0.00
0, 0.65, 0.00
-29, 5.99, 0.00
-28, 1.41, 0.00
-27, 4.45, 0.00
-26, 2.21, 0.00
-25, 3.35, 0.00
-24, 3.73, 0.00
-23, 1.90, 0.00
-22, 4.49, 0.00
-21, 0.56, 0.00
-20, 5.88, 0.00
-19, -0.96, 0.00
-18, 6.41, 0.00
-17, -3.02, 0.00
-16, 7.04, 0.00
-15, -2.01, 0.00
-14, 7.49, 0.00
-13, -3.51, 0.00
-12, 7.04, 0.00
-11, -3.35, 0.00
-10, 6.24, 0.00
-9, 4.43, 0.00
-8, -3.24, 0.00
-7, 3.31, 0.00
-6, -1.79, 0.00
-5, 3.49, 0.00
-4, -0.31, 0.00
-3, 1.61, 0.00
-2, 0.49, 0.00
-1, -0.07, 0.00
0, -1.36, 0.00
-29, 3.44, 0.00
-28, -3.02, 0.00
-27, 3.60, 0.00
-26, -3.69, 0.00
-25, 5.10, 0.00
-24, -3.42, 0.00
-23, 6.01, 0.00
-22, -3.82, 0.00
-21, -4.38, 0.00
-20, 5.61, 0.00
-19, -3.08, 0.00
-18, 5.23, 0.00
-17, -1.74, 0.00
-16, 5.79, 0.00
-15, -1.05, 0.00
-14, 3.06, 0.00
-13, -0.76, 0.00
-12, 1.07, 0.00
-11, 1.14, 0.00
-10, 2.15, 0.00
-9, -0.69, 0.00
-8, 3.11, 0.00
-7, -0.87, 0.00
-6, 5.21, 0.00
-5, -1.94, 0.00
-4, 5.34, 0.00
-3, -2.37, 0.00
-2, 7.44, 0.00
-1, -1.81, 0.00
0, 8.61, 0.00
-29, -1.48, 0.00
-28, 7.51, 0.00
-27, -1.65, 0.00
-26, -1.92, 0.00
-25, -0.58, 0.00
-24, 4.65, 0.00
-23, -0.18, 0.00
-22, 2.64, 0.00
-21, 0.00, 0.00
-20, 0.89, 0.00
-19, 0.51, 0.00
-18, -0.92, 0.00
-17, 1.45, 0.00
-16, -2.64, 0.00
-15, 3.53, 0.00
-14, 4.18, 0.00
-13, -3.76, 0.00
-12, 4.87, 0.00
-11, -3.87, 0.00
-10, 6.41, 0.00
-9, -3.29, 0.00
-8, 7.42, 0.00
-7, -3.55, 0.00
-6, 6.28, 0.00
-5, -2.10, 0.00
-4, 5.95, 0.00
-3, -1.94, 0.00
-2, 4.85, 0.00
-1, -1.25, 0.00
0, 3.46, 0.00
-29, 0.89, 0.00
-28, 3.87, 0.00
-27, 2.77, 0.00
-26, 3.42, 0.00
-25, 5.05, 0.00
-24, 2.68, 0.00
-23, 7.38, 0.00
-22, 1.77, 0.00
-21, 8.81, 0.00
-20, 1.41, 0.00
-19, 10.15, 0.00
-18, 1.92, 0.00
-17, 10.95, 0.00
-16, 1.48, 0.00
-15, 11.73, 0.00
-14, 1.54, 0.00
-13, 11.71, 0.00
-12, 2.64, 0.00
-11, 11.35, 0.00
-10, 3.53, 0.00
-9, 11.20, 0.00
-8, 3.98, 0.00
-7, 9.28, 0.00
-6, 3.89, 0.00
-5, 7.78, 0.00
-4, 6.10, 0.00
-3, 6.06, 0.00
-2, 6.93, 0.00
-1, 5.07, 0.00
0, 8.16, 0.00
-29, 4.43, 0.00
-28, 9.79, 0.00
-27, 3.42, 0.00
-26, 10.21, 0.00
-25, 0.98, 0.00
-24, 10.19, 0.00
-23, 0.00, 0.00
-22, 9.48, 0.00
-21, -0.16, 0.00
-20, 10.08, 0.00
-19, 0.92, 0.00
-18, 9.90, 0.00
-17, 0.92, 0.00
-16, 9.12, 0.00
-15, 1.63, 0.00
-14, 8.05, 0.00
-13, 3.29, 0.00
-12, 7.49, 0.00
-11, 3.55, 0.00
-10, 5.45, 0.00
-9, 5.25, 0.00
-8, 3.87, 0.00
-7, 5.32, 0.00
-6, 2.66, 0.00
-5, 6.75, 0.00
-4, 0.92, 0.00
-3, 8.76, 0.00
-2, 1.94, 0.00
-1, 10.73, 0.00
0, 2.28, 0.00
-29, 11.38, 0.00
-28, 0.85, 0.00
-27, 11.22, 0.00
-26, 1.54, 0.00
-25, 11.80, 0.00
-24, 2.62, 0.00
-23, 12.47, 0.00
-22, 4.72, 0.00
-21, 12.07, 0.00
-20, 6.21, 0.00
-19, 11.56, 0.00
-18, 6.84, 0.00
-17, 10.53, 0.00
-16, 9.61, 0.00
-15, 9.21, 0.00
-14, 10.39, 0.00
-13, 7.76, 0.00
-12, 12.03, 0.00
-11, 6.93, 0.00
-10, 13.25, 0.00
-9, 6.44, 0.00
-8, 14.10, 0.00
-7, 5.79, 0.00
-6, 14.51, 0.00
-5, 5.10, 0.00
-4, 15.27, 0.00
-3, 4.83, 0.00
-2, 15.45, 0.00
-1, 5.90, 0.00
0, 14.33, 0.00
-29, 14.82, 0.00
-28, 7.17, 0.00
-27, 13.23, 0.00
-26, 8.40, 0.00
-25, 12.94, 0.00
-24, 10.10, 0.00
-23, 13.25, 0.00
-22, 8.74, 0.00
-21, 14.31, 0.00
-20, 8.34, 0.00
-19, 15.53, 0.00
-18, 7.76, 0.00
-17, 6.93, 0.00
-16, 17.17, 0.00
-15, 7.26, 0.00
-14, 17.17, 0.00
-13, 7.60, 0.00
-12, 16.05, 0.00
-11, 7.09, 0.00
-10, 16.27, 0.00
-9, 7.93, 0.00
-8, 14.82, 0.00
-7, 9.52, 0.00
-6, 13.68, 0.00
-5, 10.42, 0.00
-4, 13.30, 0.00
-3, 11.27, 0.00
-2, 9.81, 0.00
-1, 11.40, 0.00
0, 8.47, 0.00
-29, 13.43, 0.00
-28, 9.07, 0.00
-27, 15.42, 0.00
-26, 8.36, 0.00
-25, 16.07, 0.00
-24, 6.68, 0.00
-23, 16.29, 0.00
-22, 6.33, 0.00
-21, 16.12, 0.00
-20, 6.95, 0.00
-19, 16.54, 0.00
-18, 7.00, 0.00
-17, 15.13, 0.00
-16, 7.15, 0.00
-15, 14.42, 0.00
-14, 7.51, 0.00
-13, 13.99, 0.00
-12, 9.50, 0.00
-11, 12.67, 0.00
-10, 10.30, 0.00
-9, 10.55, 0.00
-8, 10.13, 0.00
-7, 7.87, 0.00
-6, 10.39, 0.00
-5, 5.90, 0.00
-4, 10.75, 0.00
-3, 4.16, 0.00
-2, 12.63, 0.00
-1, 3.96, 0.00
0, 14.13, 0.00
-29, 4.31, 0.00
-28, 12.87, 0.00
-27, 2.95, 0.00
-26, 13.17, 0.00
-25, 2.68, 0.00
-24, 12.36, 0.00
-23, 3.91, 0.00
-22, 11.04, 0.00
-21, 2.62, 0.00
-20, 8.87, 0.00
-19, 3.35, 0.00
-18, 5.12, 0.00
-17, 6.91, 0.00
-16, 7.00, 0.00
-15, 5.88, 0.00
-14, 8.09, 0.00
-13, 5.45, 0.00
-12, 9.37, 0.00
-11, 3.89, 0.00
-10, 11.00, 0.00
-9, 3.22, 0.00
-8, 12.18, 0.00
-7, 2.39, 0.00
-6, 12.05, 0.00
-5, 1.72, 0.00
-4, 11.65, 0.00
-3, 1.86, 0.00
-2, 11.42, 0.00
-1, 2.88, 0.00
0, 12.14, 0.00
-29, 3.91, 0.00
-28, 11.09, 0.00
-27, 5.61, 0.00
-26, 9.83, 0.00
-25, 5.72, 0.00
-24, 8.40, 0.00
-23, 7.17, 0.00
-22, 6.26, 0.00
-21, 8.34, 0.00
-20, 6.15, 0.00
-19, 9.72, 0.00
-18, 4.74, 0.00
-17, 11.04, 0.00
-16, 3.29, 0.00
-15, 11.62, 0.00
-14, 2.24, 0.00
-13, 11.04, 0.00
-12, 0.38, 0.00
-11, 10.48, 0.00
-10, 0.20, 0.00
-9, 10.97, 0.00
-8, 1.25, 0.00
-7, 10.48, 0.00
-6, 2.08, 0.00
-5, 10.28, 0.00
-4, 3.80, 0.00
-3, 9.75, 0.00
-2, 4.54, 0.00
-1, 8.58, 0.00
0, 6.17, 0.00
-29, 7.58, 0.00
-28, 7.53, 0.00
-27, 6.17, 0.00
-26, 8.00, 0.00
-25, 4.87, 0.00
-24, 10.35, 0.00
-23, 3.22, 0.00
-22, 10.48, 0.00
-21, 2.73, 0.00
-20, 11.15, 0.00
-19, 1.83, 0.00
-18, 12.58, 0.00
-17, 2.53, 0.00
-16, 13.70, 0.00
-15, 3.98, 0.00
-14, 13.86, 0.00
-13, 4.56, 0.00
-12, 12.41, 0.00
-11, 5.23, 0.00
-10, 12.05, 0.00
-9, 7.20, 0.00
-8, 12.00, 0.00
-7, 8.85, 0.00
-6, 11.00, 0.00
-5, 9.41, 0.00
-4, 9.43, 0.00
-3, 11.04, 0.00
-2, 7.22, 0.00
-1, 11.31, 0.00
0, 5.52, 0.00
-29, 13.25, 0.00
-28, 6.35, 0.00
-27, 15.78, 0.00
-26, 6.12, 0.00
-25, 15.40, 0.00
-24, 6.08, 0.00
-23, 15.96, 0.00
-22, 7.24, 0.00
-21, 17.08, 0.00
-20, 7.35, 0.00
-19, 17.17, 0.00
-18, 8.09, 0.00
-17, 15.56, 0.00
-16, 9.25, 0.00
-15, 14.46, 0.00
-14, 9.86, 0.00
-13, 12.61, 0.00
-12, 10.71, 0.00
-11, 10.55, 0.00
-10, 12.41, 0.00
-9, 10.19, 0.00
-8, 14.01, 0.00
-7, 8.52, 0.00
-6, 14.37, 0.00
-5, 7.67, 0.00
-4, 15.27, 0.00
-3, 6.59, 0.00
-2, 14.91, 0.00
-1, 5.30, 0.00
0, 15.65, 0.00
-29, 5.41, 0.00
-28, 15.69, 0.00
-27, 6.01, 0.00
-26, 14.53, 0.00
-25, 5.28, 0.00
-24, 14.22, 0.00
-23, 6.33, 0.00
-22, 12.52, 0.00
-21, 7.67, 0.00
-20, 11.02, 0.00
-19, 7.62, 0.00
-18, 10.17, 0.00
-17, 9.54, 0.00
-16, 8.36, 0.00
-15, 10.46, 0.00
-14, 7.15, 0.00
-13, 12.09, 0.00
-12, 6.55, 0.00
-11, 14.46, 0.00
-10, 6.35, 0.00
-9, 14.64, 0.00
-8, 4.52, 0.00
-7, 14.64, 0.00
-6, 4.69, 0.00
-5, 15.89, 0.00
-4, 6.06, 0.00
-3, 15.98, 0.00
-2, 5.83, 0.00
-1, 14.24, 0.00
0, 5.88, 0.00
-29, 13.03, 0.00
-28, 7.58, 0.00
-27, 12.29, 0.00
-26, 9.07, 0.00
-25, 10.86, 0.00
-24, 9.07, 0.00
-23, 9.48, 0.00
-22, 10.13, 0.00
-21, 7.89, 0.00
-20, 10.97, 0.00
-19, 5.83, 0.00
-18, 12.32, 0.00
-17, 4.85, 0.00
-16, 13.34, 0.00
-15, 5.34, 0.00
-14, 14.46, 0.00
-13, 4.69, 0.00
-12, 15.47, 0.00
-11, 4.96, 0.00
-10, 14.19, 0.00
-9, 4.54, 0.00
-8, 13.32, 0.00
-7, 4.38, 0.00
-6, 13.30, 0.00
-5, 6.79, 0.00
-4, 12.85, 0.00
-3, 8.49, 0.00
-2, 11.42, 0.00
-1, 9.72, 0.00
0, 11.09, 0.00
-29, 11.35, 0.00
-28, 10.13, 0.00
-27, 13.05, 0.00
-26, 8.63, 0.00
-25, 13.57, 0.00
-24, 7.26, 0.00
-23, 14.62, 0.00
-22, 6.71, 0.00
-21, 16.45, 0.00
-20, 7.73, 0.00
-19, 16.63, 0.00
-18, 6.93, 0.00
-17, 16.18, 0.00
-16, 6.84, 0.00
-15, 15.87, 0.00
-14, 6.84, 0.00
-13, 15.60, 0.00
-12, 7.17, 0.00
-11, 14.19, 0.00
-10, 8.43, 0.00
-9, 13.14, 0.00
-8, 9.03, 0.00
-7, 11.69, 0.00
-6, 11.15, 0.00
-5, 10.15, 0.00
-4, 12.83, 0.00
-3, 9.88, 0.00
-2, 13.19, 0.00
-1, 7.87, 0.00
0, 13.55, 0.00
-29, 5.61, 0.00
-28, 13.93, 0.00
-27, 5.54, 0.00
-26, 15.00, 0.00
-25, 5.77, 0.00
-24, 16.09, 0.00
-23, 5.88, 0.00
-22, 16.12, 0.00
-21, 6.35, 0.00
-20, 15.47, 0.00
-19, 7.47, 0.00
-18, 13.93, 0.00
-17, 7.82, 0.00
-16, 14.64, 0.00
-15, 10.59, 0.00
-14, 14.22, 0.00
-13, 12.72, 0.00
-12, 13.21, 0.00
-11, 13.72, 0.00
-10, 12.23, 0.00
-9, 15.65, 0.00
-8, 10.93, 0.00
-7, 15.27, 0.00
-6, 7.87, 0.00
-5, 15.60, 0.00
-4, 7.67, 0.00
-3, 16.72, 0.00
-2, 8.40, 0.00
-1, 17.48, 0.00
0, 8.31, 0.00
-29, 18.82, 0.00
-28, 9.01, 0.00
-27, 17.52, 0.00
-26, 8.09, 0.00
-25, 16.36, 0.00
-24, 8.63, 0.00
-23, 15.42, 0.00
-22, 10.44, 0.00
-21, 14.93, 0.00
-20, 12.20, 0.00
-19, 13.77, 0.00
-18, 14.04, 0.00
-17, 11.98, 0.00
-16, 14.46, 0.00
-15, 11.51, 0.00
-14, 16.21, 0.00
-13, 9.72, 0.00
-12, 16.16, 0.00
-11, 8.45, 0.00
-10, 16.96, 0.00
-9, 7.76, 0.00
-8, 17.48, 0.00
-7, 7.71, 0.00
-6, 16.94, 0.00
-5, 7.82, 0.00
-4, 17.70, 0.00
-3, 8.29, 0.00
-2, 17.01, 0.00
-1, 8.38, 0.00
0, 15.76, 0.00
-29, 8.78, 0.00
-28, 13.55, 0.00
-27, 8.83, 0.00
-26, 11.76, 0.00
-25, 10.97, 0.00
-24, 10.66, 0.00
-23, 12.56, 0.00
-22, 9.68, 0.00
-21, 12.87, 0.00
-20, 8.11, 0.00
-19, 13.97, 0.00
-18, 7.17, 0.00
-17, 15.24, 0.00
-16, 6.55, 0.00
-15, 16.07, 0.00
-14, 6.41, 0.00
-13, 16.54, 0.00
-12, 6.41, 0.00
-11, 16.76, 0.00
-10, 6.91, 0.00
-9, 15.91, 0.00
-8, 6.57, 0.00
-7, 14.35, 0.00
-6, 7.00, 0.00
-5, 13.21, 0.00
-4, 9.34, 0.00
-3, 13.57, 0.00
-2, 10.84, 0.00
-1, 11.24, 0.00
0, 11.85, 0.00
-29, 9.70, 0.00
-28, 12.18, 0.00
-27, 8.31, 0.00
-26, 12.92, 0.00
-25, 5.59, 0.00
-24, 12.85, 0.00
-23, 5.61, 0.00
-22, 14.10, 0.00
-21, 4.09, 0.00
-20, 13.86, 0.00
-19, 3.38, 0.00
-18, 13.43, 0.00
-17, 4.65, 0.00
-16, 14.15, 0.00
-15, 4.67, 0.00
-14, 12.18, 0.00
-13, 3.78, 0.00
-12, 11.09, 0.00
-11, 5.10, 0.00
-10, 9.79, 0.00
-9, 6.08, 0.00
-8, 7.67, 0.00
-7, 6.79, 0.00
-6, 6.59, 0.00
-5, 8.58, 0.00
-4, 5.79, 0.00
-3, 9.97, 0.00
-2, 4.85, 0.00
-1, 10.97, 0.00
0, 4.00, 0.00
-29, 12.61, 0.00
-28, 4.25, 0.00
-27, 13.05, 0.00
-26, 3.24, 0.00
-25, 13.03, 0.00
-24, 2.73, 0.00
-23, 12.49, 0.00
-22, 2.66, 0.00
-21, 11.02, 0.00
-20, 2.91, 0.00
-19, 10.35, 0.00
-18, 4.31, 0.00
-17, 9.95, 0.00
-16, 5.28, 0.00
-15, 8.69, 0.00
-14, 7.47, 0.00
-13, 6.91, 0.00
-12, 8.14, 0.00
-11, 5.92, 0.00
-10, 8.87, 0.00
-9, 4.96, 0.00
-8, 10.59, 0.00
-7, 4.34, 0.00
-6, 11.31, 0.00
-5, 2.95, 0.00
-4, 10.86, 0.00
-3, 1.27, 0.00
-2, 11.27, 0.00
-1, 1.34, 0.00
0, 11.00, 0.00
